 I_abs(s)[cm^-1]/c[mg/ml]
       0.00000          0.145446E-01
      0.500000E-02      0.144726E-01
      0.100000E-01      0.142586E-01
      0.150000E-01      0.139090E-01
      0.200000E-01      0.134342E-01
      0.250000E-01      0.128476E-01
      0.300000E-01      0.121659E-01
      0.350000E-01      0.114075E-01
      0.400000E-01      0.105920E-01
      0.450000E-01      0.973957E-02
      0.500000E-01      0.886989E-02
      0.550000E-01      0.800146E-02
      0.600000E-01      0.715104E-02
      0.650000E-01      0.633316E-02
      0.700000E-01      0.555973E-02
      0.750000E-01      0.483995E-02
      0.800000E-01      0.418020E-02
      0.850000E-01      0.358423E-02
      0.900000E-01      0.305333E-02
      0.950000E-01      0.258672E-02
      0.100000          0.218184E-02
      0.105000          0.183485E-02
      0.110000          0.154096E-02
      0.115000          0.129487E-02
      0.120000          0.109104E-02
      0.125000          0.924048E-03
      0.130000          0.788734E-03
      0.135000          0.680376E-03
      0.140000          0.594765E-03
      0.145000          0.528232E-03
      0.150000          0.477633E-03
      0.155000          0.440297E-03
      0.160000          0.413962E-03
      0.165000          0.396695E-03
      0.170000          0.386824E-03
      0.175000          0.382870E-03
      0.180000          0.383500E-03
      0.185000          0.387490E-03
      0.190000          0.393710E-03
      0.195000          0.401121E-03
      0.200000          0.408779E-03
      0.205000          0.415850E-03
      0.210000          0.421631E-03
      0.215000          0.425557E-03
      0.220000          0.427220E-03
      0.225000          0.426369E-03
      0.230000          0.422909E-03
      0.235000          0.416888E-03
      0.240000          0.408484E-03
      0.245000          0.397975E-03
      0.250000          0.385719E-03
      0.255000          0.372121E-03
      0.260000          0.357603E-03
      0.265000          0.342583E-03
      0.270000          0.327448E-03
      0.275000          0.312538E-03
      0.280000          0.298134E-03
      0.285000          0.284449E-03
      0.290000          0.271629E-03
      0.295000          0.259753E-03
      0.300000          0.248843E-03
      0.305000          0.238871E-03
      0.310000          0.229769E-03
      0.315000          0.221447E-03
      0.320000          0.213797E-03
      0.325000          0.206710E-03
      0.330000          0.200079E-03
      0.335000          0.193811E-03
      0.340000          0.187830E-03
      0.345000          0.182077E-03
      0.350000          0.176515E-03
      0.355000          0.171124E-03
      0.360000          0.165897E-03
      0.365000          0.160844E-03
      0.370000          0.155978E-03
      0.375000          0.151319E-03
      0.380000          0.146885E-03
      0.385000          0.142694E-03
      0.390000          0.138758E-03
      0.395000          0.135082E-03
      0.400000          0.131669E-03
      0.405000          0.128514E-03
      0.410000          0.125606E-03
      0.415000          0.122936E-03
      0.420000          0.120488E-03
      0.425000          0.118250E-03
      0.430000          0.116209E-03
      0.435000          0.114355E-03
      0.440000          0.112677E-03
      0.445000          0.111168E-03
      0.450000          0.109823E-03
      0.455000          0.108634E-03
      0.460000          0.107594E-03
      0.465000          0.106694E-03
      0.470000          0.105922E-03
      0.475000          0.105262E-03
      0.480000          0.104695E-03
      0.485000          0.104200E-03
      0.490000          0.103751E-03
      0.495000          0.103323E-03
      0.500000          0.102889E-03
