 I_abs(s)[cm^-1]/c[mg/ml]
       0.00000          0.146081E-01
      0.500000E-02      0.145432E-01
      0.100000E-01      0.143503E-01
      0.150000E-01      0.140347E-01
      0.200000E-01      0.136053E-01
      0.250000E-01      0.130735E-01
      0.300000E-01      0.124536E-01
      0.350000E-01      0.117612E-01
      0.400000E-01      0.110134E-01
      0.450000E-01      0.102277E-01
      0.500000E-01      0.942117E-02
      0.550000E-01      0.861031E-02
      0.600000E-01      0.781010E-02
      0.650000E-01      0.703373E-02
      0.700000E-01      0.629232E-02
      0.750000E-01      0.559464E-02
      0.800000E-01      0.494712E-02
      0.850000E-01      0.435389E-02
      0.900000E-01      0.381691E-02
      0.950000E-01      0.333624E-02
      0.100000          0.291032E-02
      0.105000          0.253631E-02
      0.110000          0.221044E-02
      0.115000          0.192831E-02
      0.120000          0.168523E-02
      0.125000          0.147647E-02
      0.130000          0.129749E-02
      0.135000          0.114407E-02
      0.140000          0.101243E-02
      0.145000          0.899302E-03
      0.150000          0.801920E-03
      0.155000          0.717998E-03
      0.160000          0.645685E-03
      0.165000          0.583498E-03
      0.170000          0.530244E-03
      0.175000          0.484947E-03
      0.180000          0.446783E-03
      0.185000          0.415020E-03
      0.190000          0.388974E-03
      0.195000          0.367981E-03
      0.200000          0.351378E-03
      0.205000          0.338501E-03
      0.210000          0.328686E-03
      0.215000          0.321287E-03
      0.220000          0.315681E-03
      0.225000          0.311294E-03
      0.230000          0.307613E-03
      0.235000          0.304197E-03
      0.240000          0.300691E-03
      0.245000          0.296824E-03
      0.250000          0.292414E-03
      0.255000          0.287364E-03
      0.260000          0.281646E-03
      0.265000          0.275299E-03
      0.270000          0.268410E-03
      0.275000          0.261100E-03
      0.280000          0.253510E-03
      0.285000          0.245789E-03
      0.290000          0.238078E-03
      0.295000          0.230504E-03
      0.300000          0.223169E-03
      0.305000          0.216149E-03
      0.310000          0.209491E-03
      0.315000          0.203211E-03
      0.320000          0.197301E-03
      0.325000          0.191733E-03
      0.330000          0.186460E-03
      0.335000          0.181431E-03
      0.340000          0.176588E-03
      0.345000          0.171879E-03
      0.350000          0.167261E-03
      0.355000          0.162701E-03
      0.360000          0.158181E-03
      0.365000          0.153699E-03
      0.370000          0.149267E-03
      0.375000          0.144908E-03
      0.380000          0.140657E-03
      0.385000          0.136555E-03
      0.390000          0.132644E-03
      0.395000          0.128968E-03
      0.400000          0.125567E-03
      0.405000          0.122472E-03
      0.410000          0.119709E-03
      0.415000          0.117293E-03
      0.420000          0.115230E-03
      0.425000          0.113515E-03
      0.430000          0.112136E-03
      0.435000          0.111070E-03
      0.440000          0.110289E-03
      0.445000          0.109759E-03
      0.450000          0.109440E-03
      0.455000          0.109291E-03
      0.460000          0.109265E-03
      0.465000          0.109319E-03
      0.470000          0.109403E-03
      0.475000          0.109473E-03
      0.480000          0.109484E-03
      0.485000          0.109395E-03
      0.490000          0.109166E-03
      0.495000          0.108766E-03
      0.500000          0.108166E-03
