 I_abs(s)[cm^-1]/c[mg/ml]
       0.00000          0.144180E-01
      0.500000E-02      0.143366E-01
      0.100000E-01      0.140951E-01
      0.150000E-01      0.137019E-01
      0.200000E-01      0.131703E-01
      0.250000E-01      0.125180E-01
      0.300000E-01      0.117660E-01
      0.350000E-01      0.109375E-01
      0.400000E-01      0.100571E-01
      0.450000E-01      0.914905E-02
      0.500000E-01      0.823661E-02
      0.550000E-01      0.734096E-02
      0.600000E-01      0.648044E-02
      0.650000E-01      0.567004E-02
      0.700000E-01      0.492112E-02
      0.750000E-01      0.424136E-02
      0.800000E-01      0.363488E-02
      0.850000E-01      0.310263E-02
      0.900000E-01      0.264285E-02
      0.950000E-01      0.225157E-02
      0.100000          0.192329E-02
      0.105000          0.165147E-02
      0.110000          0.142910E-02
      0.115000          0.124914E-02
      0.120000          0.110484E-02
      0.125000          0.990040E-03
      0.130000          0.899255E-03
      0.135000          0.827766E-03
      0.140000          0.771596E-03
      0.145000          0.727444E-03
      0.150000          0.692594E-03
      0.155000          0.664810E-03
      0.160000          0.642237E-03
      0.165000          0.623315E-03
      0.170000          0.606724E-03
      0.175000          0.591341E-03
      0.180000          0.576226E-03
      0.185000          0.560617E-03
      0.190000          0.543943E-03
      0.195000          0.525824E-03
      0.200000          0.506078E-03
      0.205000          0.484717E-03
      0.210000          0.461925E-03
      0.215000          0.438034E-03
      0.220000          0.413484E-03
      0.225000          0.388778E-03
      0.230000          0.364439E-03
      0.235000          0.340968E-03
      0.240000          0.318804E-03
      0.245000          0.298302E-03
      0.250000          0.279714E-03
      0.255000          0.263187E-03
      0.260000          0.248765E-03
      0.265000          0.236406E-03
      0.270000          0.225997E-03
      0.275000          0.217375E-03
      0.280000          0.210348E-03
      0.285000          0.204711E-03
      0.290000          0.200260E-03
      0.295000          0.196796E-03
      0.300000          0.194136E-03
      0.305000          0.192107E-03
      0.310000          0.190548E-03
      0.315000          0.189304E-03
      0.320000          0.188227E-03
      0.325000          0.187174E-03
      0.330000          0.186009E-03
      0.335000          0.184606E-03
      0.340000          0.182854E-03
      0.345000          0.180664E-03
      0.350000          0.177977E-03
      0.355000          0.174767E-03
      0.360000          0.171045E-03
      0.365000          0.166859E-03
      0.370000          0.162293E-03
      0.375000          0.157459E-03
      0.380000          0.152490E-03
      0.385000          0.147532E-03
      0.390000          0.142731E-03
      0.395000          0.138221E-03
      0.400000          0.134121E-03
      0.405000          0.130521E-03
      0.410000          0.127483E-03
      0.415000          0.125034E-03
      0.420000          0.123173E-03
      0.425000          0.121868E-03
      0.430000          0.121067E-03
      0.435000          0.120700E-03
      0.440000          0.120688E-03
      0.445000          0.120949E-03
      0.450000          0.121400E-03
      0.455000          0.121967E-03
      0.460000          0.122582E-03
      0.465000          0.123187E-03
      0.470000          0.123735E-03
      0.475000          0.124186E-03
      0.480000          0.124509E-03
      0.485000          0.124678E-03
      0.490000          0.124671E-03
      0.495000          0.124469E-03
      0.500000          0.124057E-03
