 I_abs(s)[cm^-1]/c[mg/ml]
       0.00000          0.144654E-01
      0.500000E-02      0.143690E-01
      0.100000E-01      0.140843E-01
      0.150000E-01      0.136242E-01
      0.200000E-01      0.130093E-01
      0.250000E-01      0.122662E-01
      0.300000E-01      0.114255E-01
      0.350000E-01      0.105200E-01
      0.400000E-01      0.958196E-02
      0.450000E-01      0.864192E-02
      0.500000E-01      0.772648E-02
      0.550000E-01      0.685733E-02
      0.600000E-01      0.605060E-02
      0.650000E-01      0.531672E-02
      0.700000E-01      0.466069E-02
      0.750000E-01      0.408278E-02
      0.800000E-01      0.357952E-02
      0.850000E-01      0.314471E-02
      0.900000E-01      0.277052E-02
      0.950000E-01      0.244849E-02
      0.100000          0.217029E-02
      0.105000          0.192836E-02
      0.110000          0.171624E-02
      0.115000          0.152877E-02
      0.120000          0.136202E-02
      0.125000          0.121319E-02
      0.130000          0.108038E-02
      0.135000          0.962329E-03
      0.140000          0.858213E-03
      0.145000          0.767406E-03
      0.150000          0.689339E-03
      0.155000          0.623389E-03
      0.160000          0.568817E-03
      0.165000          0.524740E-03
      0.170000          0.490131E-03
      0.175000          0.463833E-03
      0.180000          0.444585E-03
      0.185000          0.431055E-03
      0.190000          0.421876E-03
      0.195000          0.415690E-03
      0.200000          0.411193E-03
      0.205000          0.407185E-03
      0.210000          0.402619E-03
      0.215000          0.396650E-03
      0.220000          0.388667E-03
      0.225000          0.378324E-03
      0.230000          0.365541E-03
      0.235000          0.350493E-03
      0.240000          0.333572E-03
      0.245000          0.315346E-03
      0.250000          0.296486E-03
      0.255000          0.277708E-03
      0.260000          0.259700E-03
      0.265000          0.243070E-03
      0.270000          0.228298E-03
      0.275000          0.215710E-03
      0.280000          0.205470E-03
      0.285000          0.197581E-03
      0.290000          0.191910E-03
      0.295000          0.188217E-03
      0.300000          0.186183E-03
      0.305000          0.185453E-03
      0.310000          0.185658E-03
      0.315000          0.186448E-03
      0.320000          0.187504E-03
      0.325000          0.188553E-03
      0.330000          0.189371E-03
      0.335000          0.189787E-03
      0.340000          0.189676E-03
      0.345000          0.188957E-03
      0.350000          0.187588E-03
      0.355000          0.185560E-03
      0.360000          0.182895E-03
      0.365000          0.179639E-03
      0.370000          0.175862E-03
      0.375000          0.171652E-03
      0.380000          0.167106E-03
      0.385000          0.162333E-03
      0.390000          0.157442E-03
      0.395000          0.152537E-03
      0.400000          0.147716E-03
      0.405000          0.143058E-03
      0.410000          0.138629E-03
      0.415000          0.134472E-03
      0.420000          0.130614E-03
      0.425000          0.127064E-03
      0.430000          0.123815E-03
      0.435000          0.120850E-03
      0.440000          0.118149E-03
      0.445000          0.115686E-03
      0.450000          0.113437E-03
      0.455000          0.111384E-03
      0.460000          0.109513E-03
      0.465000          0.107816E-03
      0.470000          0.106289E-03
      0.475000          0.104932E-03
      0.480000          0.103746E-03
      0.485000          0.102731E-03
      0.490000          0.101881E-03
      0.495000          0.101188E-03
      0.500000          0.100635E-03
