 I_abs(s)[cm^-1]/c[mg/ml]
       0.00000          0.145446E-01
      0.500000E-02      0.144748E-01
      0.100000E-01      0.142675E-01
      0.150000E-01      0.139284E-01
      0.200000E-01      0.134673E-01
      0.250000E-01      0.128968E-01
      0.300000E-01      0.122325E-01
      0.350000E-01      0.114918E-01
      0.400000E-01      0.106937E-01
      0.450000E-01      0.985734E-02
      0.500000E-01      0.900210E-02
      0.550000E-01      0.814626E-02
      0.600000E-01      0.730667E-02
      0.650000E-01      0.649819E-02
      0.700000E-01      0.573327E-02
      0.750000E-01      0.502177E-02
      0.800000E-01      0.437075E-02
      0.850000E-01      0.378461E-02
      0.900000E-01      0.326511E-02
      0.950000E-01      0.281173E-02
      0.100000          0.242191E-02
      0.105000          0.209149E-02
      0.110000          0.181506E-02
      0.115000          0.158647E-02
      0.120000          0.139913E-02
      0.125000          0.124641E-02
      0.130000          0.112197E-02
      0.135000          0.101996E-02
      0.140000          0.935233E-03
      0.145000          0.863434E-03
      0.150000          0.801048E-03
      0.155000          0.745391E-03
      0.160000          0.694554E-03
      0.165000          0.647308E-03
      0.170000          0.602986E-03
      0.175000          0.561352E-03
      0.180000          0.522478E-03
      0.185000          0.486613E-03
      0.190000          0.454079E-03
      0.195000          0.425183E-03
      0.200000          0.400145E-03
      0.205000          0.379061E-03
      0.210000          0.361876E-03
      0.215000          0.348380E-03
      0.220000          0.338226E-03
      0.225000          0.330950E-03
      0.230000          0.326009E-03
      0.235000          0.322811E-03
      0.240000          0.320758E-03
      0.245000          0.319277E-03
      0.250000          0.317851E-03
      0.255000          0.316037E-03
      0.260000          0.313489E-03
      0.265000          0.309958E-03
      0.270000          0.305294E-03
      0.275000          0.299444E-03
      0.280000          0.292438E-03
      0.285000          0.284375E-03
      0.290000          0.275410E-03
      0.295000          0.265730E-03
      0.300000          0.255545E-03
      0.305000          0.245069E-03
      0.310000          0.234506E-03
      0.315000          0.224044E-03
      0.320000          0.213843E-03
      0.325000          0.204031E-03
      0.330000          0.194708E-03
      0.335000          0.185937E-03
      0.340000          0.177755E-03
      0.345000          0.170173E-03
      0.350000          0.163181E-03
      0.355000          0.156755E-03
      0.360000          0.150859E-03
      0.365000          0.145455E-03
      0.370000          0.140501E-03
      0.375000          0.135961E-03
      0.380000          0.131800E-03
      0.385000          0.127992E-03
      0.390000          0.124516E-03
      0.395000          0.121360E-03
      0.400000          0.118515E-03
      0.405000          0.115977E-03
      0.410000          0.113743E-03
      0.415000          0.111813E-03
      0.420000          0.110183E-03
      0.425000          0.108849E-03
      0.430000          0.107799E-03
      0.435000          0.107021E-03
      0.440000          0.106492E-03
      0.445000          0.106188E-03
      0.450000          0.106078E-03
      0.455000          0.106127E-03
      0.460000          0.106296E-03
      0.465000          0.106543E-03
      0.470000          0.106828E-03
      0.475000          0.107109E-03
      0.480000          0.107347E-03
      0.485000          0.107506E-03
      0.490000          0.107552E-03
      0.495000          0.107460E-03
      0.500000          0.107209E-03
