 I_abs(s)[cm^-1]/c[mg/ml]
       0.00000          0.142998E-01
      0.500000E-02      0.142060E-01
      0.100000E-01      0.139286E-01
      0.150000E-01      0.134796E-01
      0.200000E-01      0.128781E-01
      0.250000E-01      0.121487E-01
      0.300000E-01      0.113202E-01
      0.350000E-01      0.104233E-01
      0.400000E-01      0.948908E-02
      0.450000E-01      0.854702E-02
      0.500000E-01      0.762341E-02
      0.550000E-01      0.674031E-02
      0.600000E-01      0.591481E-02
      0.650000E-01      0.515875E-02
      0.700000E-01      0.447890E-02
      0.750000E-01      0.387744E-02
      0.800000E-01      0.335275E-02
      0.850000E-01      0.290030E-02
      0.900000E-01      0.251362E-02
      0.950000E-01      0.218516E-02
      0.100000          0.190710E-02
      0.105000          0.167193E-02
      0.110000          0.147281E-02
      0.115000          0.130385E-02
      0.120000          0.116010E-02
      0.125000          0.103755E-02
      0.130000          0.932902E-03
      0.135000          0.843503E-03
      0.140000          0.767120E-03
      0.145000          0.701847E-03
      0.150000          0.646016E-03
      0.155000          0.598159E-03
      0.160000          0.557008E-03
      0.165000          0.521503E-03
      0.170000          0.490809E-03
      0.175000          0.464313E-03
      0.180000          0.441603E-03
      0.185000          0.422419E-03
      0.190000          0.406588E-03
      0.195000          0.393948E-03
      0.200000          0.384272E-03
      0.205000          0.377211E-03
      0.210000          0.372267E-03
      0.215000          0.368785E-03
      0.220000          0.365999E-03
      0.225000          0.363083E-03
      0.230000          0.359243E-03
      0.235000          0.353794E-03
      0.240000          0.346246E-03
      0.245000          0.336357E-03
      0.250000          0.324162E-03
      0.255000          0.309970E-03
      0.260000          0.294323E-03
      0.265000          0.277930E-03
      0.270000          0.261582E-03
      0.275000          0.246061E-03
      0.280000          0.232050E-03
      0.285000          0.220065E-03
      0.290000          0.210411E-03
      0.295000          0.203157E-03
      0.300000          0.198153E-03
      0.305000          0.195062E-03
      0.310000          0.193413E-03
      0.315000          0.192669E-03
      0.320000          0.192289E-03
      0.325000          0.191787E-03
      0.330000          0.190778E-03
      0.335000          0.189002E-03
      0.340000          0.186335E-03
      0.345000          0.182781E-03
      0.350000          0.178448E-03
      0.355000          0.173516E-03
      0.360000          0.168209E-03
      0.365000          0.162753E-03
      0.370000          0.157359E-03
      0.375000          0.152196E-03
      0.380000          0.147388E-03
      0.385000          0.143010E-03
      0.390000          0.139094E-03
      0.395000          0.135642E-03
      0.400000          0.132634E-03
      0.405000          0.130042E-03
      0.410000          0.127836E-03
      0.415000          0.125987E-03
      0.420000          0.124470E-03
      0.425000          0.123257E-03
      0.430000          0.122316E-03
      0.435000          0.121603E-03
      0.440000          0.121059E-03
      0.445000          0.120610E-03
      0.450000          0.120171E-03
      0.455000          0.119650E-03
      0.460000          0.118958E-03
      0.465000          0.118018E-03
      0.470000          0.116777E-03
      0.475000          0.115213E-03
      0.480000          0.113337E-03
      0.485000          0.111197E-03
      0.490000          0.108869E-03
      0.495000          0.106455E-03
      0.500000          0.104064E-03
