 I_abs(s)[cm^-1]/c[mg/ml]
       0.00000          0.132730E-01
      0.500000E-02      0.131727E-01
      0.100000E-01      0.128773E-01
      0.150000E-01      0.124036E-01
      0.200000E-01      0.117776E-01
      0.250000E-01      0.110323E-01
      0.300000E-01      0.102053E-01
      0.350000E-01      0.933483E-02
      0.400000E-01      0.845765E-02
      0.450000E-01      0.760586E-02
      0.500000E-01      0.680514E-02
      0.550000E-01      0.607358E-02
      0.600000E-01      0.542133E-02
      0.650000E-01      0.485111E-02
      0.700000E-01      0.435934E-02
      0.750000E-01      0.393773E-02
      0.800000E-01      0.357511E-02
      0.850000E-01      0.325924E-02
      0.900000E-01      0.297839E-02
      0.950000E-01      0.272257E-02
      0.100000          0.248428E-02
      0.105000          0.225879E-02
      0.110000          0.204401E-02
      0.115000          0.184002E-02
      0.120000          0.164839E-02
      0.125000          0.147144E-02
      0.130000          0.131152E-02
      0.135000          0.117047E-02
      0.140000          0.104923E-02
      0.145000          0.947675E-03
      0.150000          0.864673E-03
      0.155000          0.798264E-03
      0.160000          0.745941E-03
      0.165000          0.704962E-03
      0.170000          0.672645E-03
      0.175000          0.646586E-03
      0.180000          0.624803E-03
      0.185000          0.605784E-03
      0.190000          0.588456E-03
      0.195000          0.572107E-03
      0.200000          0.556276E-03
      0.205000          0.540644E-03
      0.210000          0.524951E-03
      0.215000          0.508942E-03
      0.220000          0.492351E-03
      0.225000          0.474922E-03
      0.230000          0.456447E-03
      0.235000          0.436807E-03
      0.240000          0.416019E-03
      0.245000          0.394253E-03
      0.250000          0.371833E-03
      0.255000          0.349214E-03
      0.260000          0.326932E-03
      0.265000          0.305550E-03
      0.270000          0.285595E-03
      0.275000          0.267499E-03
      0.280000          0.251557E-03
      0.285000          0.237903E-03
      0.290000          0.226502E-03
      0.295000          0.217169E-03
      0.300000          0.209599E-03
      0.305000          0.203409E-03
      0.310000          0.198182E-03
      0.315000          0.193518E-03
      0.320000          0.189067E-03
      0.325000          0.184559E-03
      0.330000          0.179820E-03
      0.335000          0.174775E-03
      0.340000          0.169441E-03
      0.345000          0.163904E-03
      0.350000          0.158302E-03
      0.355000          0.152792E-03
      0.360000          0.147531E-03
      0.365000          0.142646E-03
      0.370000          0.138225E-03
      0.375000          0.134307E-03
      0.380000          0.130876E-03
      0.385000          0.127876E-03
      0.390000          0.125215E-03
      0.395000          0.122787E-03
      0.400000          0.120484E-03
      0.405000          0.118213E-03
      0.410000          0.115909E-03
      0.415000          0.113542E-03
      0.420000          0.111116E-03
      0.425000          0.108665E-03
      0.430000          0.106243E-03
      0.435000          0.103913E-03
      0.440000          0.101732E-03
      0.445000          0.997415E-04
      0.450000          0.979549E-04
      0.455000          0.963575E-04
      0.460000          0.949062E-04
      0.465000          0.935364E-04
      0.470000          0.921722E-04
      0.475000          0.907390E-04
      0.480000          0.891758E-04
      0.485000          0.874455E-04
      0.490000          0.855416E-04
      0.495000          0.834894E-04
      0.500000          0.813425E-04
