 I_abs(s)[cm^-1]/c[mg/ml]
       0.00000          0.146479E-01
      0.500000E-02      0.145967E-01
      0.100000E-01      0.144444E-01
      0.150000E-01      0.141944E-01
      0.200000E-01      0.138523E-01
      0.250000E-01      0.134257E-01
      0.300000E-01      0.129238E-01
      0.350000E-01      0.123572E-01
      0.400000E-01      0.117373E-01
      0.450000E-01      0.110763E-01
      0.500000E-01      0.103862E-01
      0.550000E-01      0.967895E-02
      0.600000E-01      0.896602E-02
      0.650000E-01      0.825784E-02
      0.700000E-01      0.756379E-02
      0.750000E-01      0.689195E-02
      0.800000E-01      0.624900E-02
      0.850000E-01      0.564018E-02
      0.900000E-01      0.506932E-02
      0.950000E-01      0.453888E-02
      0.100000          0.405008E-02
      0.105000          0.360309E-02
      0.110000          0.319713E-02
      0.115000          0.283070E-02
      0.120000          0.250173E-02
      0.125000          0.220779E-02
      0.130000          0.194620E-02
      0.135000          0.171418E-02
      0.140000          0.150898E-02
      0.145000          0.132793E-02
      0.150000          0.116851E-02
      0.155000          0.102841E-02
      0.160000          0.905516E-03
      0.165000          0.797925E-03
      0.170000          0.703943E-03
      0.175000          0.622057E-03
      0.180000          0.550924E-03
      0.185000          0.489341E-03
      0.190000          0.436230E-03
      0.195000          0.390617E-03
      0.200000          0.351615E-03
      0.205000          0.318418E-03
      0.210000          0.290287E-03
      0.215000          0.266549E-03
      0.220000          0.246591E-03
      0.225000          0.229858E-03
      0.230000          0.215854E-03
      0.235000          0.204138E-03
      0.240000          0.194324E-03
      0.245000          0.186078E-03
      0.250000          0.179113E-03
      0.255000          0.173191E-03
      0.260000          0.168109E-03
      0.265000          0.163706E-03
      0.270000          0.159849E-03
      0.275000          0.156431E-03
      0.280000          0.153372E-03
      0.285000          0.150608E-03
      0.290000          0.148091E-03
      0.295000          0.145785E-03
      0.300000          0.143666E-03
      0.305000          0.141717E-03
      0.310000          0.139927E-03
      0.315000          0.138286E-03
      0.320000          0.136790E-03
      0.325000          0.135432E-03
      0.330000          0.134208E-03
      0.335000          0.133107E-03
      0.340000          0.132120E-03
      0.345000          0.131231E-03
      0.350000          0.130422E-03
      0.355000          0.129671E-03
      0.360000          0.128954E-03
      0.365000          0.128246E-03
      0.370000          0.127520E-03
      0.375000          0.126751E-03
      0.380000          0.125916E-03
      0.385000          0.124994E-03
      0.390000          0.123972E-03
      0.395000          0.122840E-03
      0.400000          0.121595E-03
      0.405000          0.120238E-03
      0.410000          0.118779E-03
      0.415000          0.117229E-03
      0.420000          0.115605E-03
      0.425000          0.113927E-03
      0.430000          0.112215E-03
      0.435000          0.110491E-03
      0.440000          0.108772E-03
      0.445000          0.107078E-03
      0.450000          0.105422E-03
      0.455000          0.103814E-03
      0.460000          0.102264E-03
      0.465000          0.100773E-03
      0.470000          0.993423E-04
      0.475000          0.979698E-04
      0.480000          0.966508E-04
      0.485000          0.953795E-04
      0.490000          0.941494E-04
      0.495000          0.929541E-04
      0.500000          0.917877E-04
