 I_abs(s)[cm^-1]/c[mg/ml]
       0.00000          0.144022E-01
      0.500000E-02      0.143364E-01
      0.100000E-01      0.141409E-01
      0.150000E-01      0.138216E-01
      0.200000E-01      0.133878E-01
      0.250000E-01      0.128519E-01
      0.300000E-01      0.122288E-01
      0.350000E-01      0.115353E-01
      0.400000E-01      0.107891E-01
      0.450000E-01      0.100081E-01
      0.500000E-01      0.920990E-02
      0.550000E-01      0.841082E-02
      0.600000E-01      0.762563E-02
      0.650000E-01      0.686697E-02
      0.700000E-01      0.614518E-02
      0.750000E-01      0.546814E-02
      0.800000E-01      0.484131E-02
      0.850000E-01      0.426788E-02
      0.900000E-01      0.374902E-02
      0.950000E-01      0.328414E-02
      0.100000          0.287130E-02
      0.105000          0.250753E-02
      0.110000          0.218917E-02
      0.115000          0.191219E-02
      0.120000          0.167240E-02
      0.125000          0.146574E-02
      0.130000          0.128829E-02
      0.135000          0.113648E-02
      0.140000          0.100705E-02
      0.145000          0.897060E-03
      0.150000          0.803904E-03
      0.155000          0.725244E-03
      0.160000          0.658985E-03
      0.165000          0.603238E-03
      0.170000          0.556299E-03
      0.175000          0.516633E-03
      0.180000          0.482872E-03
      0.185000          0.453824E-03
      0.190000          0.428471E-03
      0.195000          0.405988E-03
      0.200000          0.385736E-03
      0.205000          0.367263E-03
      0.210000          0.350288E-03
      0.215000          0.334672E-03
      0.220000          0.320393E-03
      0.225000          0.307501E-03
      0.230000          0.296083E-03
      0.235000          0.286219E-03
      0.240000          0.277952E-03
      0.245000          0.271260E-03
      0.250000          0.266044E-03
      0.255000          0.262121E-03
      0.260000          0.259233E-03
      0.265000          0.257064E-03
      0.270000          0.255263E-03
      0.275000          0.253471E-03
      0.280000          0.251355E-03
      0.285000          0.248626E-03
      0.290000          0.245067E-03
      0.295000          0.240546E-03
      0.300000          0.235021E-03
      0.305000          0.228537E-03
      0.310000          0.221219E-03
      0.315000          0.213254E-03
      0.320000          0.204875E-03
      0.325000          0.196332E-03
      0.330000          0.187876E-03
      0.335000          0.179738E-03
      0.340000          0.172111E-03
      0.345000          0.165143E-03
      0.350000          0.158926E-03
      0.355000          0.153499E-03
      0.360000          0.148853E-03
      0.365000          0.144934E-03
      0.370000          0.141657E-03
      0.375000          0.138918E-03
      0.380000          0.136601E-03
      0.385000          0.134592E-03
      0.390000          0.132785E-03
      0.395000          0.131091E-03
      0.400000          0.129439E-03
      0.405000          0.127776E-03
      0.410000          0.126070E-03
      0.415000          0.124306E-03
      0.420000          0.122481E-03
      0.425000          0.120604E-03
      0.430000          0.118687E-03
      0.435000          0.116748E-03
      0.440000          0.114804E-03
      0.445000          0.112871E-03
      0.450000          0.110965E-03
      0.455000          0.109098E-03
      0.460000          0.107281E-03
      0.465000          0.105524E-03
      0.470000          0.103836E-03
      0.475000          0.102226E-03
      0.480000          0.100704E-03
      0.485000          0.992784E-04
      0.490000          0.979581E-04
      0.495000          0.967500E-04
      0.500000          0.956590E-04
