 I_abs(s)[cm^-1]/c[mg/ml]
       0.00000          0.141117E-01
      0.500000E-02      0.140423E-01
      0.100000E-01      0.138360E-01
      0.150000E-01      0.134986E-01
      0.200000E-01      0.130390E-01
      0.250000E-01      0.124696E-01
      0.300000E-01      0.118053E-01
      0.350000E-01      0.110632E-01
      0.400000E-01      0.102616E-01
      0.450000E-01      0.941972E-02
      0.500000E-01      0.855684E-02
      0.550000E-01      0.769155E-02
      0.600000E-01      0.684124E-02
      0.650000E-01      0.602158E-02
      0.700000E-01      0.524605E-02
      0.750000E-01      0.452568E-02
      0.800000E-01      0.386881E-02
      0.850000E-01      0.328107E-02
      0.900000E-01      0.276538E-02
      0.950000E-01      0.232217E-02
      0.100000          0.194960E-02
      0.105000          0.164385E-02
      0.110000          0.139956E-02
      0.115000          0.121016E-02
      0.120000          0.106833E-02
      0.125000          0.966358E-03
      0.130000          0.896522E-03
      0.135000          0.851398E-03
      0.140000          0.824125E-03
      0.145000          0.808603E-03
      0.150000          0.799632E-03
      0.155000          0.792982E-03
      0.160000          0.785416E-03
      0.165000          0.774646E-03
      0.170000          0.759265E-03
      0.175000          0.738638E-03
      0.180000          0.712768E-03
      0.185000          0.682165E-03
      0.190000          0.647699E-03
      0.195000          0.610469E-03
      0.200000          0.571679E-03
      0.205000          0.532536E-03
      0.210000          0.494165E-03
      0.215000          0.457548E-03
      0.220000          0.423482E-03
      0.225000          0.392556E-03
      0.230000          0.365148E-03
      0.235000          0.341434E-03
      0.240000          0.321409E-03
      0.245000          0.304913E-03
      0.250000          0.291663E-03
      0.255000          0.281285E-03
      0.260000          0.273351E-03
      0.265000          0.267401E-03
      0.270000          0.262975E-03
      0.275000          0.259629E-03
      0.280000          0.256957E-03
      0.285000          0.254597E-03
      0.290000          0.252242E-03
      0.295000          0.249642E-03
      0.300000          0.246605E-03
      0.305000          0.242994E-03
      0.310000          0.238725E-03
      0.315000          0.233761E-03
      0.320000          0.228106E-03
      0.325000          0.221799E-03
      0.330000          0.214908E-03
      0.335000          0.207522E-03
      0.340000          0.199749E-03
      0.345000          0.191706E-03
      0.350000          0.183515E-03
      0.355000          0.175299E-03
      0.360000          0.167178E-03
      0.365000          0.159264E-03
      0.370000          0.151660E-03
      0.375000          0.144455E-03
      0.380000          0.137724E-03
      0.385000          0.131527E-03
      0.390000          0.125907E-03
      0.395000          0.120893E-03
      0.400000          0.116498E-03
      0.405000          0.112720E-03
      0.410000          0.109545E-03
      0.415000          0.106947E-03
      0.420000          0.104892E-03
      0.425000          0.103334E-03
      0.430000          0.102224E-03
      0.435000          0.101506E-03
      0.440000          0.101121E-03
      0.445000          0.101005E-03
      0.450000          0.101096E-03
      0.455000          0.101329E-03
      0.460000          0.101639E-03
      0.465000          0.101966E-03
      0.470000          0.102249E-03
      0.475000          0.102433E-03
      0.480000          0.102469E-03
      0.485000          0.102311E-03
      0.490000          0.101926E-03
      0.495000          0.101287E-03
      0.500000          0.100379E-03
