 I_abs(s)[cm^-1]/c[mg/ml]
       0.00000          0.141039E-01
      0.500000E-02      0.140033E-01
      0.100000E-01      0.137066E-01
      0.150000E-01      0.132292E-01
      0.200000E-01      0.125948E-01
      0.250000E-01      0.118340E-01
      0.300000E-01      0.109817E-01
      0.350000E-01      0.100744E-01
      0.400000E-01      0.914752E-02
      0.450000E-01      0.823313E-02
      0.500000E-01      0.735812E-02
      0.550000E-01      0.654296E-02
      0.600000E-01      0.580124E-02
      0.650000E-01      0.513986E-02
      0.700000E-01      0.455969E-02
      0.750000E-01      0.405684E-02
      0.800000E-01      0.362398E-02
      0.850000E-01      0.325182E-02
      0.900000E-01      0.293047E-02
      0.950000E-01      0.265049E-02
      0.100000          0.240374E-02
      0.105000          0.218373E-02
      0.110000          0.198580E-02
      0.115000          0.180690E-02
      0.120000          0.164527E-02
      0.125000          0.149998E-02
      0.130000          0.137053E-02
      0.135000          0.125641E-02
      0.140000          0.115690E-02
      0.145000          0.107087E-02
      0.150000          0.996841E-03
      0.155000          0.932984E-03
      0.160000          0.877335E-03
      0.165000          0.827944E-03
      0.170000          0.783037E-03
      0.175000          0.741144E-03
      0.180000          0.701170E-03
      0.185000          0.662412E-03
      0.190000          0.624525E-03
      0.195000          0.587456E-03
      0.200000          0.551357E-03
      0.205000          0.516499E-03
      0.210000          0.483189E-03
      0.215000          0.451718E-03
      0.220000          0.422318E-03
      0.225000          0.395144E-03
      0.230000          0.370277E-03
      0.235000          0.347730E-03
      0.240000          0.327456E-03
      0.245000          0.309368E-03
      0.250000          0.293342E-03
      0.255000          0.279229E-03
      0.260000          0.266855E-03
      0.265000          0.256031E-03
      0.270000          0.246551E-03
      0.275000          0.238205E-03
      0.280000          0.230785E-03
      0.285000          0.224094E-03
      0.290000          0.217957E-03
      0.295000          0.212229E-03
      0.300000          0.206796E-03
      0.305000          0.201580E-03
      0.310000          0.196529E-03
      0.315000          0.191621E-03
      0.320000          0.186844E-03
      0.325000          0.182199E-03
      0.330000          0.177688E-03
      0.335000          0.173310E-03
      0.340000          0.169062E-03
      0.345000          0.164939E-03
      0.350000          0.160933E-03
      0.355000          0.157040E-03
      0.360000          0.153261E-03
      0.365000          0.149599E-03
      0.370000          0.146062E-03
      0.375000          0.142662E-03
      0.380000          0.139406E-03
      0.385000          0.136301E-03
      0.390000          0.133345E-03
      0.395000          0.130532E-03
      0.400000          0.127850E-03
      0.405000          0.125281E-03
      0.410000          0.122806E-03
      0.415000          0.120408E-03
      0.420000          0.118071E-03
      0.425000          0.115783E-03
      0.430000          0.113534E-03
      0.435000          0.111317E-03
      0.440000          0.109126E-03
      0.445000          0.106952E-03
      0.450000          0.104786E-03
      0.455000          0.102617E-03
      0.460000          0.100436E-03
      0.465000          0.982351E-04
      0.470000          0.960152E-04
      0.475000          0.937854E-04
      0.480000          0.915655E-04
      0.485000          0.893860E-04
      0.490000          0.872854E-04
      0.495000          0.853065E-04
      0.500000          0.834905E-04
