 I_abs(s)[cm^-1]/c[mg/ml]
       0.00000          0.144338E-01
      0.500000E-02      0.143780E-01
      0.100000E-01      0.142119E-01
      0.150000E-01      0.139389E-01
      0.200000E-01      0.135651E-01
      0.250000E-01      0.130983E-01
      0.300000E-01      0.125483E-01
      0.350000E-01      0.119263E-01
      0.400000E-01      0.112447E-01
      0.450000E-01      0.105169E-01
      0.500000E-01      0.975644E-02
      0.550000E-01      0.897690E-02
      0.600000E-01      0.819158E-02
      0.650000E-01      0.741302E-02
      0.700000E-01      0.665278E-02
      0.750000E-01      0.592112E-02
      0.800000E-01      0.522686E-02
      0.850000E-01      0.457721E-02
      0.900000E-01      0.397771E-02
      0.950000E-01      0.343221E-02
      0.100000          0.294289E-02
      0.105000          0.251039E-02
      0.110000          0.213395E-02
      0.115000          0.181153E-02
      0.120000          0.154006E-02
      0.125000          0.131562E-02
      0.130000          0.113367E-02
      0.135000          0.989287E-03
      0.140000          0.877319E-03
      0.145000          0.792619E-03
      0.150000          0.730189E-03
      0.155000          0.685320E-03
      0.160000          0.653703E-03
      0.165000          0.631510E-03
      0.170000          0.615440E-03
      0.175000          0.602749E-03
      0.180000          0.591243E-03
      0.185000          0.579263E-03
      0.190000          0.565642E-03
      0.195000          0.549655E-03
      0.200000          0.530959E-03
      0.205000          0.509527E-03
      0.210000          0.485583E-03
      0.215000          0.459531E-03
      0.220000          0.431904E-03
      0.225000          0.403298E-03
      0.230000          0.374333E-03
      0.235000          0.345607E-03
      0.240000          0.317670E-03
      0.245000          0.291000E-03
      0.250000          0.265987E-03
      0.255000          0.242926E-03
      0.260000          0.222018E-03
      0.265000          0.203370E-03
      0.270000          0.187008E-03
      0.275000          0.172883E-03
      0.280000          0.160886E-03
      0.285000          0.150860E-03
      0.290000          0.142618E-03
      0.295000          0.135950E-03
      0.300000          0.130638E-03
      0.305000          0.126467E-03
      0.310000          0.123234E-03
      0.315000          0.120752E-03
      0.320000          0.118855E-03
      0.325000          0.117405E-03
      0.330000          0.116287E-03
      0.335000          0.115415E-03
      0.340000          0.114724E-03
      0.345000          0.114170E-03
      0.350000          0.113728E-03
      0.355000          0.113386E-03
      0.360000          0.113140E-03
      0.365000          0.112993E-03
      0.370000          0.112949E-03
      0.375000          0.113010E-03
      0.380000          0.113174E-03
      0.385000          0.113434E-03
      0.390000          0.113777E-03
      0.395000          0.114180E-03
      0.400000          0.114615E-03
      0.405000          0.115050E-03
      0.410000          0.115448E-03
      0.415000          0.115770E-03
      0.420000          0.115977E-03
      0.425000          0.116034E-03
      0.430000          0.115911E-03
      0.435000          0.115585E-03
      0.440000          0.115039E-03
      0.445000          0.114269E-03
      0.450000          0.113278E-03
      0.455000          0.112082E-03
      0.460000          0.110704E-03
      0.465000          0.109177E-03
      0.470000          0.107540E-03
      0.475000          0.105837E-03
      0.480000          0.104116E-03
      0.485000          0.102424E-03
      0.490000          0.100808E-03
      0.495000          0.993103E-04
      0.500000          0.979667E-04
