 I_abs(s)[cm^-1]/c[mg/ml]
       0.00000          0.139015E-01
      0.500000E-02      0.138163E-01
      0.100000E-01      0.135638E-01
      0.150000E-01      0.131535E-01
      0.200000E-01      0.126009E-01
      0.250000E-01      0.119262E-01
      0.300000E-01      0.111534E-01
      0.350000E-01      0.103089E-01
      0.400000E-01      0.942023E-02
      0.450000E-01      0.851464E-02
      0.500000E-01      0.761765E-02
      0.550000E-01      0.675201E-02
      0.600000E-01      0.593684E-02
      0.650000E-01      0.518694E-02
      0.700000E-01      0.451255E-02
      0.750000E-01      0.391931E-02
      0.800000E-01      0.340850E-02
      0.850000E-01      0.297760E-02
      0.900000E-01      0.262094E-02
      0.950000E-01      0.233049E-02
      0.100000          0.209670E-02
      0.105000          0.190936E-02
      0.110000          0.175830E-02
      0.115000          0.163407E-02
      0.120000          0.152839E-02
      0.125000          0.143448E-02
      0.130000          0.134720E-02
      0.135000          0.126307E-02
      0.140000          0.118013E-02
      0.145000          0.109769E-02
      0.150000          0.101607E-02
      0.155000          0.936251E-03
      0.160000          0.859575E-03
      0.165000          0.787460E-03
      0.170000          0.721165E-03
      0.175000          0.661623E-03
      0.180000          0.609348E-03
      0.185000          0.564398E-03
      0.190000          0.526409E-03
      0.195000          0.494661E-03
      0.200000          0.468181E-03
      0.205000          0.445856E-03
      0.210000          0.426552E-03
      0.215000          0.409207E-03
      0.220000          0.392918E-03
      0.225000          0.376988E-03
      0.230000          0.360957E-03
      0.235000          0.344592E-03
      0.240000          0.327871E-03
      0.245000          0.310936E-03
      0.250000          0.294052E-03
      0.255000          0.277544E-03
      0.260000          0.261758E-03
      0.265000          0.247010E-03
      0.270000          0.233561E-03
      0.275000          0.221594E-03
      0.280000          0.211207E-03
      0.285000          0.202416E-03
      0.290000          0.195163E-03
      0.295000          0.189333E-03
      0.300000          0.184774E-03
      0.305000          0.181310E-03
      0.310000          0.178763E-03
      0.315000          0.176961E-03
      0.320000          0.175747E-03
      0.325000          0.174984E-03
      0.330000          0.174556E-03
      0.335000          0.174365E-03
      0.340000          0.174324E-03
      0.345000          0.174356E-03
      0.350000          0.174390E-03
      0.355000          0.174354E-03
      0.360000          0.174175E-03
      0.365000          0.173782E-03
      0.370000          0.173102E-03
      0.375000          0.172069E-03
      0.380000          0.170625E-03
      0.385000          0.168722E-03
      0.390000          0.166329E-03
      0.395000          0.163434E-03
      0.400000          0.160043E-03
      0.405000          0.156184E-03
      0.410000          0.151903E-03
      0.415000          0.147264E-03
      0.420000          0.142342E-03
      0.425000          0.137222E-03
      0.430000          0.131993E-03
      0.435000          0.126746E-03
      0.440000          0.121565E-03
      0.445000          0.116531E-03
      0.450000          0.111713E-03
      0.455000          0.107169E-03
      0.460000          0.102947E-03
      0.465000          0.990830E-04
      0.470000          0.956012E-04
      0.475000          0.925173E-04
      0.480000          0.898380E-04
      0.485000          0.875633E-04
      0.490000          0.856870E-04
      0.495000          0.841982E-04
      0.500000          0.830813E-04
