 I_abs(s)[cm^-1]/c[mg/ml]
       0.00000          0.142919E-01
      0.500000E-02      0.142208E-01
      0.100000E-01      0.140093E-01
      0.150000E-01      0.136634E-01
      0.200000E-01      0.131928E-01
      0.250000E-01      0.126103E-01
      0.300000E-01      0.119316E-01
      0.350000E-01      0.111743E-01
      0.400000E-01      0.103576E-01
      0.450000E-01      0.950127E-02
      0.500000E-01      0.862501E-02
      0.550000E-01      0.774773E-02
      0.600000E-01      0.688694E-02
      0.650000E-01      0.605821E-02
      0.700000E-01      0.527477E-02
      0.750000E-01      0.454720E-02
      0.800000E-01      0.388332E-02
      0.850000E-01      0.328815E-02
      0.900000E-01      0.276401E-02
      0.950000E-01      0.231077E-02
      0.100000          0.192614E-02
      0.105000          0.160604E-02
      0.110000          0.134498E-02
      0.115000          0.113652E-02
      0.120000          0.973674E-03
      0.125000          0.849269E-03
      0.130000          0.756298E-03
      0.135000          0.688192E-03
      0.140000          0.639027E-03
      0.145000          0.603670E-03
      0.150000          0.577852E-03
      0.155000          0.558183E-03
      0.160000          0.542113E-03
      0.165000          0.527858E-03
      0.170000          0.514287E-03
      0.175000          0.500799E-03
      0.180000          0.487190E-03
      0.185000          0.473528E-03
      0.190000          0.460036E-03
      0.195000          0.446992E-03
      0.200000          0.434658E-03
      0.205000          0.423220E-03
      0.210000          0.412766E-03
      0.215000          0.403266E-03
      0.220000          0.394590E-03
      0.225000          0.386516E-03
      0.230000          0.378769E-03
      0.235000          0.371044E-03
      0.240000          0.363045E-03
      0.245000          0.354510E-03
      0.250000          0.345234E-03
      0.255000          0.335087E-03
      0.260000          0.324020E-03
      0.265000          0.312065E-03
      0.270000          0.299328E-03
      0.275000          0.285980E-03
      0.280000          0.272235E-03
      0.285000          0.258336E-03
      0.290000          0.244536E-03
      0.295000          0.231080E-03
      0.300000          0.218188E-03
      0.305000          0.206048E-03
      0.310000          0.194804E-03
      0.315000          0.184552E-03
      0.320000          0.175346E-03
      0.325000          0.167192E-03
      0.330000          0.160060E-03
      0.335000          0.153889E-03
      0.340000          0.148596E-03
      0.345000          0.144082E-03
      0.350000          0.140245E-03
      0.355000          0.136981E-03
      0.360000          0.134194E-03
      0.365000          0.131798E-03
      0.370000          0.129719E-03
      0.375000          0.127900E-03
      0.380000          0.126295E-03
      0.385000          0.124871E-03
      0.390000          0.123606E-03
      0.395000          0.122488E-03
      0.400000          0.121508E-03
      0.405000          0.120663E-03
      0.410000          0.119950E-03
      0.415000          0.119367E-03
      0.420000          0.118912E-03
      0.425000          0.118580E-03
      0.430000          0.118366E-03
      0.435000          0.118261E-03
      0.440000          0.118257E-03
      0.445000          0.118344E-03
      0.450000          0.118509E-03
      0.455000          0.118742E-03
      0.460000          0.119027E-03
      0.465000          0.119352E-03
      0.470000          0.119699E-03
      0.475000          0.120052E-03
      0.480000          0.120392E-03
      0.485000          0.120695E-03
      0.490000          0.120940E-03
      0.495000          0.121101E-03
      0.500000          0.121150E-03
