 I_abs(s)[cm^-1]/c[mg/ml]
       0.00000          0.142762E-01
      0.500000E-02      0.142035E-01
      0.100000E-01      0.139878E-01
      0.150000E-01      0.136360E-01
      0.200000E-01      0.131592E-01
      0.250000E-01      0.125720E-01
      0.300000E-01      0.118922E-01
      0.350000E-01      0.111396E-01
      0.400000E-01      0.103352E-01
      0.450000E-01      0.950021E-02
      0.500000E-01      0.865520E-02
      0.550000E-01      0.781933E-02
      0.600000E-01      0.700961E-02
      0.650000E-01      0.624036E-02
      0.700000E-01      0.552289E-02
      0.750000E-01      0.486533E-02
      0.800000E-01      0.427260E-02
      0.850000E-01      0.374665E-02
      0.900000E-01      0.328672E-02
      0.950000E-01      0.288977E-02
      0.100000          0.255099E-02
      0.105000          0.226428E-02
      0.110000          0.202279E-02
      0.115000          0.181940E-02
      0.120000          0.164712E-02
      0.125000          0.149949E-02
      0.130000          0.137077E-02
      0.135000          0.125615E-02
      0.140000          0.115181E-02
      0.145000          0.105494E-02
      0.150000          0.963666E-03
      0.155000          0.876922E-03
      0.160000          0.794316E-03
      0.165000          0.715966E-03
      0.170000          0.642327E-03
      0.175000          0.574037E-03
      0.180000          0.511780E-03
      0.185000          0.456174E-03
      0.190000          0.407690E-03
      0.195000          0.366594E-03
      0.200000          0.332926E-03
      0.205000          0.306492E-03
      0.210000          0.286881E-03
      0.215000          0.273500E-03
      0.220000          0.265605E-03
      0.225000          0.262351E-03
      0.230000          0.262835E-03
      0.235000          0.266137E-03
      0.240000          0.271360E-03
      0.245000          0.277662E-03
      0.250000          0.284280E-03
      0.255000          0.290553E-03
      0.260000          0.295933E-03
      0.265000          0.299991E-03
      0.270000          0.302423E-03
      0.275000          0.303042E-03
      0.280000          0.301773E-03
      0.285000          0.298644E-03
      0.290000          0.293768E-03
      0.295000          0.287333E-03
      0.300000          0.279582E-03
      0.305000          0.270793E-03
      0.310000          0.261266E-03
      0.315000          0.251303E-03
      0.320000          0.241194E-03
      0.325000          0.231203E-03
      0.330000          0.221555E-03
      0.335000          0.212434E-03
      0.340000          0.203973E-03
      0.345000          0.196253E-03
      0.350000          0.189307E-03
      0.355000          0.183125E-03
      0.360000          0.177656E-03
      0.365000          0.172817E-03
      0.370000          0.168506E-03
      0.375000          0.164607E-03
      0.380000          0.160999E-03
      0.385000          0.157567E-03
      0.390000          0.154207E-03
      0.395000          0.150829E-03
      0.400000          0.147368E-03
      0.405000          0.143777E-03
      0.410000          0.140037E-03
      0.415000          0.136147E-03
      0.420000          0.132126E-03
      0.425000          0.128013E-03
      0.430000          0.123856E-03
      0.435000          0.119714E-03
      0.440000          0.115646E-03
      0.445000          0.111717E-03
      0.450000          0.107983E-03
      0.455000          0.104495E-03
      0.460000          0.101295E-03
      0.465000          0.984140E-04
      0.470000          0.958712E-04
      0.475000          0.936736E-04
      0.480000          0.918170E-04
      0.485000          0.902871E-04
      0.490000          0.890605E-04
      0.495000          0.881069E-04
      0.500000          0.873908E-04
