 I_abs(s)[cm^-1]/c[mg/ml]
       0.00000          0.139870E-01
      0.500000E-02      0.139077E-01
      0.100000E-01      0.136733E-01
      0.150000E-01      0.132931E-01
      0.200000E-01      0.127825E-01
      0.250000E-01      0.121612E-01
      0.300000E-01      0.114524E-01
      0.350000E-01      0.106810E-01
      0.400000E-01      0.987245E-02
      0.450000E-01      0.905110E-02
      0.500000E-01      0.823902E-02
      0.550000E-01      0.745503E-02
      0.600000E-01      0.671412E-02
      0.650000E-01      0.602707E-02
      0.700000E-01      0.540053E-02
      0.750000E-01      0.483731E-02
      0.800000E-01      0.433695E-02
      0.850000E-01      0.389633E-02
      0.900000E-01      0.351049E-02
      0.950000E-01      0.317330E-02
      0.100000          0.287819E-02
      0.105000          0.261867E-02
      0.110000          0.238875E-02
      0.115000          0.218324E-02
      0.120000          0.199782E-02
      0.125000          0.182914E-02
      0.130000          0.167468E-02
      0.135000          0.153264E-02
      0.140000          0.140181E-02
      0.145000          0.128136E-02
      0.150000          0.117075E-02
      0.155000          0.106955E-02
      0.160000          0.977412E-03
      0.165000          0.893974E-03
      0.170000          0.818833E-03
      0.175000          0.751537E-03
      0.180000          0.691584E-03
      0.185000          0.638424E-03
      0.190000          0.591477E-03
      0.195000          0.550138E-03
      0.200000          0.513800E-03
      0.205000          0.481859E-03
      0.210000          0.453731E-03
      0.215000          0.428871E-03
      0.220000          0.406780E-03
      0.225000          0.387021E-03
      0.230000          0.369223E-03
      0.235000          0.353090E-03
      0.240000          0.338396E-03
      0.245000          0.324973E-03
      0.250000          0.312701E-03
      0.255000          0.301490E-03
      0.260000          0.291260E-03
      0.265000          0.281921E-03
      0.270000          0.273368E-03
      0.275000          0.265463E-03
      0.280000          0.258043E-03
      0.285000          0.250927E-03
      0.290000          0.243925E-03
      0.295000          0.236856E-03
      0.300000          0.229570E-03
      0.305000          0.221959E-03
      0.310000          0.213971E-03
      0.315000          0.205618E-03
      0.320000          0.196968E-03
      0.325000          0.188141E-03
      0.330000          0.179295E-03
      0.335000          0.170604E-03
      0.340000          0.162246E-03
      0.345000          0.154378E-03
      0.350000          0.147126E-03
      0.355000          0.140573E-03
      0.360000          0.134758E-03
      0.365000          0.129678E-03
      0.370000          0.125292E-03
      0.375000          0.121530E-03
      0.380000          0.118312E-03
      0.385000          0.115549E-03
      0.390000          0.113158E-03
      0.395000          0.111071E-03
      0.400000          0.109233E-03
      0.405000          0.107605E-03
      0.410000          0.106163E-03
      0.415000          0.104893E-03
      0.420000          0.103784E-03
      0.425000          0.102829E-03
      0.430000          0.102013E-03
      0.435000          0.101319E-03
      0.440000          0.100721E-03
      0.445000          0.100187E-03
      0.450000          0.996823E-04
      0.455000          0.991688E-04
      0.460000          0.986093E-04
      0.465000          0.979695E-04
      0.470000          0.972192E-04
      0.475000          0.963337E-04
      0.480000          0.952940E-04
      0.485000          0.940865E-04
      0.490000          0.927032E-04
      0.495000          0.911410E-04
      0.500000          0.894024E-04
