 I_abs(s)[cm^-1]/c[mg/ml]
       0.00000          0.143234E-01
      0.500000E-02      0.142478E-01
      0.100000E-01      0.140236E-01
      0.150000E-01      0.136583E-01
      0.200000E-01      0.131637E-01
      0.250000E-01      0.125556E-01
      0.300000E-01      0.118529E-01
      0.350000E-01      0.110762E-01
      0.400000E-01      0.102474E-01
      0.450000E-01      0.938827E-02
      0.500000E-01      0.851947E-02
      0.550000E-01      0.766005E-02
      0.600000E-01      0.682663E-02
      0.650000E-01      0.603303E-02
      0.700000E-01      0.529006E-02
      0.750000E-01      0.460548E-02
      0.800000E-01      0.398418E-02
      0.850000E-01      0.342844E-02
      0.900000E-01      0.293828E-02
      0.950000E-01      0.251189E-02
      0.100000          0.214608E-02
      0.105000          0.183661E-02
      0.110000          0.157864E-02
      0.115000          0.136694E-02
      0.120000          0.119615E-02
      0.125000          0.106096E-02
      0.130000          0.956217E-03
      0.135000          0.877001E-03
      0.140000          0.818667E-03
      0.145000          0.776888E-03
      0.150000          0.747684E-03
      0.155000          0.727445E-03
      0.160000          0.712972E-03
      0.165000          0.701499E-03
      0.170000          0.690730E-03
      0.175000          0.678856E-03
      0.180000          0.664559E-03
      0.185000          0.647006E-03
      0.190000          0.625814E-03
      0.195000          0.601005E-03
      0.200000          0.572932E-03
      0.205000          0.542211E-03
      0.210000          0.509626E-03
      0.215000          0.476054E-03
      0.220000          0.442379E-03
      0.225000          0.409436E-03
      0.230000          0.377949E-03
      0.235000          0.348507E-03
      0.240000          0.321541E-03
      0.245000          0.297325E-03
      0.250000          0.275983E-03
      0.255000          0.257512E-03
      0.260000          0.241800E-03
      0.265000          0.228657E-03
      0.270000          0.217836E-03
      0.275000          0.209056E-03
      0.280000          0.202020E-03
      0.285000          0.196425E-03
      0.290000          0.191978E-03
      0.295000          0.188402E-03
      0.300000          0.185439E-03
      0.305000          0.182859E-03
      0.310000          0.180463E-03
      0.315000          0.178087E-03
      0.320000          0.175605E-03
      0.325000          0.172931E-03
      0.330000          0.170022E-03
      0.335000          0.166876E-03
      0.340000          0.163526E-03
      0.345000          0.160038E-03
      0.350000          0.156501E-03
      0.355000          0.153019E-03
      0.360000          0.149697E-03
      0.365000          0.146639E-03
      0.370000          0.143928E-03
      0.375000          0.141629E-03
      0.380000          0.139778E-03
      0.385000          0.138381E-03
      0.390000          0.137416E-03
      0.395000          0.136834E-03
      0.400000          0.136564E-03
      0.405000          0.136521E-03
      0.410000          0.136609E-03
      0.415000          0.136733E-03
      0.420000          0.136799E-03
      0.425000          0.136726E-03
      0.430000          0.136444E-03
      0.435000          0.135899E-03
      0.440000          0.135056E-03
      0.445000          0.133893E-03
      0.450000          0.132407E-03
      0.455000          0.130609E-03
      0.460000          0.128520E-03
      0.465000          0.126171E-03
      0.470000          0.123601E-03
      0.475000          0.120853E-03
      0.480000          0.117972E-03
      0.485000          0.115006E-03
      0.490000          0.111999E-03
      0.495000          0.108997E-03
      0.500000          0.106041E-03
