 I_abs(s)[cm^-1]/c[mg/ml]
       0.00000          0.144812E-01
      0.500000E-02      0.144073E-01
      0.100000E-01      0.141877E-01
      0.150000E-01      0.138293E-01
      0.200000E-01      0.133430E-01
      0.250000E-01      0.127436E-01
      0.300000E-01      0.120484E-01
      0.350000E-01      0.112773E-01
      0.400000E-01      0.104510E-01
      0.450000E-01      0.959088E-02
      0.500000E-01      0.871745E-02
      0.550000E-01      0.785004E-02
      0.600000E-01      0.700594E-02
      0.650000E-01      0.619993E-02
      0.700000E-01      0.544389E-02
      0.750000E-01      0.474671E-02
      0.800000E-01      0.411423E-02
      0.850000E-01      0.354940E-02
      0.900000E-01      0.305259E-02
      0.950000E-01      0.262194E-02
      0.100000          0.225380E-02
      0.105000          0.194320E-02
      0.110000          0.168426E-02
      0.115000          0.147067E-02
      0.120000          0.129603E-02
      0.125000          0.115416E-02
      0.130000          0.103929E-02
      0.135000          0.946271E-03
      0.140000          0.870610E-03
      0.145000          0.808511E-03
      0.150000          0.756845E-03
      0.155000          0.713094E-03
      0.160000          0.675271E-03
      0.165000          0.641834E-03
      0.170000          0.611604E-03
      0.175000          0.583686E-03
      0.180000          0.557411E-03
      0.185000          0.532285E-03
      0.190000          0.507956E-03
      0.195000          0.484193E-03
      0.200000          0.460868E-03
      0.205000          0.437948E-03
      0.210000          0.415484E-03
      0.215000          0.393597E-03
      0.220000          0.372467E-03
      0.225000          0.352309E-03
      0.230000          0.333359E-03
      0.235000          0.315842E-03
      0.240000          0.299958E-03
      0.245000          0.285856E-03
      0.250000          0.273619E-03
      0.255000          0.263260E-03
      0.260000          0.254711E-03
      0.265000          0.247833E-03
      0.270000          0.242426E-03
      0.275000          0.238239E-03
      0.280000          0.234995E-03
      0.285000          0.232408E-03
      0.290000          0.230202E-03
      0.295000          0.228127E-03
      0.300000          0.225976E-03
      0.305000          0.223589E-03
      0.310000          0.220863E-03
      0.315000          0.217743E-03
      0.320000          0.214223E-03
      0.325000          0.210338E-03
      0.330000          0.206150E-03
      0.335000          0.201737E-03
      0.340000          0.197188E-03
      0.345000          0.192586E-03
      0.350000          0.188006E-03
      0.355000          0.183507E-03
      0.360000          0.179130E-03
      0.365000          0.174898E-03
      0.370000          0.170819E-03
      0.375000          0.166887E-03
      0.380000          0.163086E-03
      0.385000          0.159397E-03
      0.390000          0.155800E-03
      0.395000          0.152278E-03
      0.400000          0.148819E-03
      0.405000          0.145418E-03
      0.410000          0.142077E-03
      0.415000          0.138806E-03
      0.420000          0.135620E-03
      0.425000          0.132535E-03
      0.430000          0.129570E-03
      0.435000          0.126743E-03
      0.440000          0.124068E-03
      0.445000          0.121556E-03
      0.450000          0.119211E-03
      0.455000          0.117031E-03
      0.460000          0.115009E-03
      0.465000          0.113134E-03
      0.470000          0.111388E-03
      0.475000          0.109753E-03
      0.480000          0.108208E-03
      0.485000          0.106734E-03
      0.490000          0.105312E-03
      0.495000          0.103929E-03
      0.500000          0.102571E-03
