 I_abs(s)[cm^-1]/c[mg/ml]
       0.00000          0.144575E-01
      0.500000E-02      0.143581E-01
      0.100000E-01      0.140644E-01
      0.150000E-01      0.135896E-01
      0.200000E-01      0.129549E-01
      0.250000E-01      0.121874E-01
      0.300000E-01      0.113186E-01
      0.350000E-01      0.103818E-01
      0.400000E-01      0.941059E-02
      0.450000E-01      0.843613E-02
      0.500000E-01      0.748603E-02
      0.550000E-01      0.658302E-02
      0.600000E-01      0.574432E-02
      0.650000E-01      0.498150E-02
      0.700000E-01      0.430077E-02
      0.750000E-01      0.370367E-02
      0.800000E-01      0.318789E-02
      0.850000E-01      0.274833E-02
      0.900000E-01      0.237800E-02
      0.950000E-01      0.206899E-02
      0.100000          0.181311E-02
      0.105000          0.160248E-02
      0.110000          0.142983E-02
      0.115000          0.128872E-02
      0.120000          0.117355E-02
      0.125000          0.107954E-02
      0.130000          0.100265E-02
      0.135000          0.939460E-03
      0.140000          0.887089E-03
      0.145000          0.843127E-03
      0.150000          0.805574E-03
      0.155000          0.772800E-03
      0.160000          0.743508E-03
      0.165000          0.716698E-03
      0.170000          0.691625E-03
      0.175000          0.667747E-03
      0.180000          0.644671E-03
      0.185000          0.622106E-03
      0.190000          0.599815E-03
      0.195000          0.577591E-03
      0.200000          0.555243E-03
      0.205000          0.532602E-03
      0.210000          0.509534E-03
      0.215000          0.485966E-03
      0.220000          0.461909E-03
      0.225000          0.437470E-03
      0.230000          0.412860E-03
      0.235000          0.388384E-03
      0.240000          0.364414E-03
      0.245000          0.341360E-03
      0.250000          0.319624E-03
      0.255000          0.299567E-03
      0.260000          0.281472E-03
      0.265000          0.265517E-03
      0.270000          0.251769E-03
      0.275000          0.240178E-03
      0.280000          0.230592E-03
      0.285000          0.222778E-03
      0.290000          0.216446E-03
      0.295000          0.211278E-03
      0.300000          0.206956E-03
      0.305000          0.203181E-03
      0.310000          0.199695E-03
      0.315000          0.196289E-03
      0.320000          0.192811E-03
      0.325000          0.189166E-03
      0.330000          0.185315E-03
      0.335000          0.181265E-03
      0.340000          0.177062E-03
      0.345000          0.172779E-03
      0.350000          0.168505E-03
      0.355000          0.164335E-03
      0.360000          0.160358E-03
      0.365000          0.156646E-03
      0.370000          0.153253E-03
      0.375000          0.150203E-03
      0.380000          0.147498E-03
      0.385000          0.145114E-03
      0.390000          0.143009E-03
      0.395000          0.141125E-03
      0.400000          0.139400E-03
      0.405000          0.137774E-03
      0.410000          0.136192E-03
      0.415000          0.134609E-03
      0.420000          0.132992E-03
      0.425000          0.131318E-03
      0.430000          0.129574E-03
      0.435000          0.127753E-03
      0.440000          0.125850E-03
      0.445000          0.123861E-03
      0.450000          0.121782E-03
      0.455000          0.119607E-03
      0.460000          0.117331E-03
      0.465000          0.114953E-03
      0.470000          0.112476E-03
      0.475000          0.109911E-03
      0.480000          0.107276E-03
      0.485000          0.104599E-03
      0.490000          0.101912E-03
      0.495000          0.992515E-04
      0.500000          0.966545E-04
