 I_abs(s)[cm^-1]/c[mg/ml]
       0.00000          0.143077E-01
      0.500000E-02      0.142364E-01
      0.100000E-01      0.140249E-01
      0.150000E-01      0.136791E-01
      0.200000E-01      0.132092E-01
      0.250000E-01      0.126283E-01
      0.300000E-01      0.119527E-01
      0.350000E-01      0.112003E-01
      0.400000E-01      0.103908E-01
      0.450000E-01      0.954407E-02
      0.500000E-01      0.867981E-02
      0.550000E-01      0.781678E-02
      0.600000E-01      0.697211E-02
      0.650000E-01      0.616080E-02
      0.700000E-01      0.539538E-02
      0.750000E-01      0.468562E-02
      0.800000E-01      0.403852E-02
      0.850000E-01      0.345826E-02
      0.900000E-01      0.294646E-02
      0.950000E-01      0.250239E-02
      0.100000          0.212334E-02
      0.105000          0.180498E-02
      0.110000          0.154182E-02
      0.115000          0.132759E-02
      0.120000          0.115561E-02
      0.125000          0.101918E-02
      0.130000          0.911817E-03
      0.135000          0.827528E-03
      0.140000          0.760957E-03
      0.145000          0.707492E-03
      0.150000          0.663317E-03
      0.155000          0.625408E-03
      0.160000          0.591495E-03
      0.165000          0.559987E-03
      0.170000          0.529885E-03
      0.175000          0.500673E-03
      0.180000          0.472214E-03
      0.185000          0.444645E-03
      0.190000          0.418279E-03
      0.195000          0.393516E-03
      0.200000          0.370778E-03
      0.205000          0.350443E-03
      0.210000          0.332810E-03
      0.215000          0.318064E-03
      0.220000          0.306265E-03
      0.225000          0.297345E-03
      0.230000          0.291111E-03
      0.235000          0.287262E-03
      0.240000          0.285413E-03
      0.245000          0.285118E-03
      0.250000          0.285895E-03
      0.255000          0.287261E-03
      0.260000          0.288751E-03
      0.265000          0.289948E-03
      0.270000          0.290497E-03
      0.275000          0.290120E-03
      0.280000          0.288625E-03
      0.285000          0.285907E-03
      0.290000          0.281944E-03
      0.295000          0.276789E-03
      0.300000          0.270555E-03
      0.305000          0.263404E-03
      0.310000          0.255528E-03
      0.315000          0.247133E-03
      0.320000          0.238424E-03
      0.325000          0.229595E-03
      0.330000          0.220813E-03
      0.335000          0.212221E-03
      0.340000          0.203926E-03
      0.345000          0.196003E-03
      0.350000          0.188500E-03
      0.355000          0.181437E-03
      0.360000          0.174814E-03
      0.365000          0.168618E-03
      0.370000          0.162825E-03
      0.375000          0.157408E-03
      0.380000          0.152338E-03
      0.385000          0.147588E-03
      0.390000          0.143133E-03
      0.395000          0.138952E-03
      0.400000          0.135024E-03
      0.405000          0.131333E-03
      0.410000          0.127862E-03
      0.415000          0.124595E-03
      0.420000          0.121518E-03
      0.425000          0.118614E-03
      0.430000          0.115872E-03
      0.435000          0.113279E-03
      0.440000          0.110830E-03
      0.445000          0.108518E-03
      0.450000          0.106344E-03
      0.455000          0.104312E-03
      0.460000          0.102427E-03
      0.465000          0.100699E-03
      0.470000          0.991379E-04
      0.475000          0.977509E-04
      0.480000          0.965439E-04
      0.485000          0.955182E-04
      0.490000          0.946701E-04
      0.495000          0.939901E-04
      0.500000          0.934634E-04
