 I_abs(s)[cm^-1]/c[mg/ml]
       0.00000          0.139297E-01
      0.500000E-02      0.138188E-01
      0.100000E-01      0.134924E-01
      0.150000E-01      0.129695E-01
      0.200000E-01      0.122792E-01
      0.250000E-01      0.114586E-01
      0.300000E-01      0.105488E-01
      0.350000E-01      0.959194E-02
      0.400000E-01      0.862733E-02
      0.450000E-01      0.768905E-02
      0.500000E-01      0.680396E-02
      0.550000E-01      0.599078E-02
      0.600000E-01      0.526016E-02
      0.650000E-01      0.461553E-02
      0.700000E-01      0.405455E-02
      0.750000E-01      0.357077E-02
      0.800000E-01      0.315545E-02
      0.850000E-01      0.279902E-02
      0.900000E-01      0.249235E-02
      0.950000E-01      0.222737E-02
      0.100000          0.199748E-02
      0.105000          0.179748E-02
      0.110000          0.162331E-02
      0.115000          0.147173E-02
      0.120000          0.133994E-02
      0.125000          0.122534E-02
      0.130000          0.112542E-02
      0.135000          0.103775E-02
      0.140000          0.960082E-03
      0.145000          0.890465E-03
      0.150000          0.827374E-03
      0.155000          0.769764E-03
      0.160000          0.717055E-03
      0.165000          0.669049E-03
      0.170000          0.625789E-03
      0.175000          0.587398E-03
      0.180000          0.553930E-03
      0.185000          0.525267E-03
      0.190000          0.501069E-03
      0.195000          0.480786E-03
      0.200000          0.463719E-03
      0.205000          0.449106E-03
      0.210000          0.436219E-03
      0.215000          0.424443E-03
      0.220000          0.413320E-03
      0.225000          0.402566E-03
      0.230000          0.392048E-03
      0.235000          0.381740E-03
      0.240000          0.371674E-03
      0.245000          0.361889E-03
      0.250000          0.352392E-03
      0.255000          0.343150E-03
      0.260000          0.334083E-03
      0.265000          0.325085E-03
      0.270000          0.316044E-03
      0.275000          0.306868E-03
      0.280000          0.297499E-03
      0.285000          0.287925E-03
      0.290000          0.278179E-03
      0.295000          0.268329E-03
      0.300000          0.258467E-03
      0.305000          0.248697E-03
      0.310000          0.239121E-03
      0.315000          0.229830E-03
      0.320000          0.220901E-03
      0.325000          0.212389E-03
      0.330000          0.204330E-03
      0.335000          0.196737E-03
      0.340000          0.189602E-03
      0.345000          0.182901E-03
      0.350000          0.176592E-03
      0.355000          0.170627E-03
      0.360000          0.164959E-03
      0.365000          0.159550E-03
      0.370000          0.154381E-03
      0.375000          0.149456E-03
      0.380000          0.144805E-03
      0.385000          0.140477E-03
      0.390000          0.136532E-03
      0.395000          0.133026E-03
      0.400000          0.129993E-03
      0.405000          0.127438E-03
      0.410000          0.125326E-03
      0.415000          0.123585E-03
      0.420000          0.122111E-03
      0.425000          0.120788E-03
      0.430000          0.119500E-03
      0.435000          0.118156E-03
      0.440000          0.116699E-03
      0.445000          0.115118E-03
      0.450000          0.113443E-03
      0.455000          0.111738E-03
      0.460000          0.110083E-03
      0.465000          0.108559E-03
      0.470000          0.107228E-03
      0.475000          0.106121E-03
      0.480000          0.105233E-03
      0.485000          0.104527E-03
      0.490000          0.103938E-03
      0.495000          0.103391E-03
      0.500000          0.102815E-03
