 I_abs(s)[cm^-1]/c[mg/ml]
       0.00000          0.136974E-01
      0.500000E-02      0.135796E-01
      0.100000E-01      0.132321E-01
      0.150000E-01      0.126731E-01
      0.200000E-01      0.119312E-01
      0.250000E-01      0.110432E-01
      0.300000E-01      0.100512E-01
      0.350000E-01      0.899985E-02
      0.400000E-01      0.793275E-02
      0.450000E-01      0.688999E-02
      0.500000E-01      0.590565E-02
      0.550000E-01      0.500620E-02
      0.600000E-01      0.420964E-02
      0.650000E-01      0.352541E-02
      0.700000E-01      0.295503E-02
      0.750000E-01      0.249329E-02
      0.800000E-01      0.212978E-02
      0.850000E-01      0.185073E-02
      0.900000E-01      0.164063E-02
      0.950000E-01      0.148392E-02
      0.100000          0.136617E-02
      0.105000          0.127497E-02
      0.110000          0.120047E-02
      0.115000          0.113551E-02
      0.120000          0.107538E-02
      0.125000          0.101756E-02
      0.130000          0.961118E-03
      0.135000          0.906225E-03
      0.140000          0.853657E-03
      0.145000          0.804386E-03
      0.150000          0.759288E-03
      0.155000          0.718971E-03
      0.160000          0.683702E-03
      0.165000          0.653416E-03
      0.170000          0.627775E-03
      0.175000          0.606242E-03
      0.180000          0.588163E-03
      0.185000          0.572829E-03
      0.190000          0.559521E-03
      0.195000          0.547537E-03
      0.200000          0.536208E-03
      0.205000          0.524909E-03
      0.210000          0.513071E-03
      0.215000          0.500204E-03
      0.220000          0.485920E-03
      0.225000          0.469962E-03
      0.230000          0.452231E-03
      0.235000          0.432801E-03
      0.240000          0.411923E-03
      0.245000          0.390002E-03
      0.250000          0.367568E-03
      0.255000          0.345225E-03
      0.260000          0.323586E-03
      0.265000          0.303223E-03
      0.270000          0.284604E-03
      0.275000          0.268060E-03
      0.280000          0.253759E-03
      0.285000          0.241708E-03
      0.290000          0.231769E-03
      0.295000          0.223691E-03
      0.300000          0.217150E-03
      0.305000          0.211796E-03
      0.310000          0.207290E-03
      0.315000          0.203335E-03
      0.320000          0.199700E-03
      0.325000          0.196220E-03
      0.330000          0.192799E-03
      0.335000          0.189394E-03
      0.340000          0.185999E-03
      0.345000          0.182623E-03
      0.350000          0.179278E-03
      0.355000          0.175966E-03
      0.360000          0.172674E-03
      0.365000          0.169370E-03
      0.370000          0.166016E-03
      0.375000          0.162568E-03
      0.380000          0.158989E-03
      0.385000          0.155255E-03
      0.390000          0.151364E-03
      0.395000          0.147334E-03
      0.400000          0.143205E-03
      0.405000          0.139038E-03
      0.410000          0.134903E-03
      0.415000          0.130882E-03
      0.420000          0.127053E-03
      0.425000          0.123492E-03
      0.430000          0.120264E-03
      0.435000          0.117420E-03
      0.440000          0.114991E-03
      0.445000          0.112994E-03
      0.450000          0.111424E-03
      0.455000          0.110256E-03
      0.460000          0.109447E-03
      0.465000          0.108938E-03
      0.470000          0.108656E-03
      0.475000          0.108519E-03
      0.480000          0.108441E-03
      0.485000          0.108338E-03
      0.490000          0.108132E-03
      0.495000          0.107761E-03
      0.500000          0.107176E-03
