 I_abs(s)[cm^-1]/c[mg/ml]
       0.00000          0.142739E-01
      0.500000E-02      0.142085E-01
      0.100000E-01      0.140141E-01
      0.150000E-01      0.136954E-01
      0.200000E-01      0.132607E-01
      0.250000E-01      0.127206E-01
      0.300000E-01      0.120885E-01
      0.350000E-01      0.113792E-01
      0.400000E-01      0.106095E-01
      0.450000E-01      0.979649E-02
      0.500000E-01      0.895770E-02
      0.550000E-01      0.811026E-02
      0.600000E-01      0.727043E-02
      0.650000E-01      0.645308E-02
      0.700000E-01      0.567137E-02
      0.750000E-01      0.493638E-02
      0.800000E-01      0.425693E-02
      0.850000E-01      0.363948E-02
      0.900000E-01      0.308811E-02
      0.950000E-01      0.260461E-02
      0.100000          0.218864E-02
      0.105000          0.183800E-02
      0.110000          0.154885E-02
      0.115000          0.131610E-02
      0.120000          0.113372E-02
      0.125000          0.995083E-03
      0.130000          0.893283E-03
      0.135000          0.821455E-03
      0.140000          0.773021E-03
      0.145000          0.741903E-03
      0.150000          0.722686E-03
      0.155000          0.710730E-03
      0.160000          0.702226E-03
      0.165000          0.694207E-03
      0.170000          0.684519E-03
      0.175000          0.671757E-03
      0.180000          0.655176E-03
      0.185000          0.634582E-03
      0.190000          0.610221E-03
      0.195000          0.582656E-03
      0.200000          0.552661E-03
      0.205000          0.521119E-03
      0.210000          0.488933E-03
      0.215000          0.456960E-03
      0.220000          0.425957E-03
      0.225000          0.396548E-03
      0.230000          0.369207E-03
      0.235000          0.344252E-03
      0.240000          0.321856E-03
      0.245000          0.302060E-03
      0.250000          0.284800E-03
      0.255000          0.269925E-03
      0.260000          0.257226E-03
      0.265000          0.246462E-03
      0.270000          0.237374E-03
      0.275000          0.229706E-03
      0.280000          0.223217E-03
      0.285000          0.217687E-03
      0.290000          0.212921E-03
      0.295000          0.208752E-03
      0.300000          0.205037E-03
      0.305000          0.201655E-03
      0.310000          0.198504E-03
      0.315000          0.195498E-03
      0.320000          0.192559E-03
      0.325000          0.189624E-03
      0.330000          0.186635E-03
      0.335000          0.183545E-03
      0.340000          0.180317E-03
      0.345000          0.176927E-03
      0.350000          0.173362E-03
      0.355000          0.169628E-03
      0.360000          0.165743E-03
      0.365000          0.161744E-03
      0.370000          0.157685E-03
      0.375000          0.153630E-03
      0.380000          0.149657E-03
      0.385000          0.145847E-03
      0.390000          0.142286E-03
      0.395000          0.139054E-03
      0.400000          0.136223E-03
      0.405000          0.133851E-03
      0.410000          0.131977E-03
      0.415000          0.130621E-03
      0.420000          0.129778E-03
      0.425000          0.129419E-03
      0.430000          0.129493E-03
      0.435000          0.129927E-03
      0.440000          0.130630E-03
      0.445000          0.131500E-03
      0.450000          0.132425E-03
      0.455000          0.133294E-03
      0.460000          0.133997E-03
      0.465000          0.134434E-03
      0.470000          0.134520E-03
      0.475000          0.134187E-03
      0.480000          0.133391E-03
      0.485000          0.132109E-03
      0.490000          0.130341E-03
      0.495000          0.128112E-03
      0.500000          0.125468E-03
