 I_abs(s)[cm^-1]/c[mg/ml]
       0.00000          0.144951E-01
      0.500000E-02      0.144343E-01
      0.100000E-01      0.142534E-01
      0.150000E-01      0.139570E-01
      0.200000E-01      0.135527E-01
      0.250000E-01      0.130504E-01
      0.300000E-01      0.124624E-01
      0.350000E-01      0.118026E-01
      0.400000E-01      0.110862E-01
      0.450000E-01      0.103287E-01
      0.500000E-01      0.954611E-02
      0.550000E-01      0.875358E-02
      0.600000E-01      0.796552E-02
      0.650000E-01      0.719494E-02
      0.700000E-01      0.645319E-02
      0.750000E-01      0.574970E-02
      0.800000E-01      0.509183E-02
      0.850000E-01      0.448491E-02
      0.900000E-01      0.393221E-02
      0.950000E-01      0.343510E-02
      0.100000          0.299329E-02
      0.105000          0.260501E-02
      0.110000          0.226732E-02
      0.115000          0.197640E-02
      0.120000          0.172785E-02
      0.125000          0.151694E-02
      0.130000          0.133885E-02
      0.135000          0.118891E-02
      0.140000          0.106271E-02
      0.145000          0.956255E-03
      0.150000          0.866029E-03
      0.155000          0.789020E-03
      0.160000          0.722727E-03
      0.165000          0.665125E-03
      0.170000          0.614614E-03
      0.175000          0.569964E-03
      0.180000          0.530237E-03
      0.185000          0.494726E-03
      0.190000          0.462891E-03
      0.195000          0.434308E-03
      0.200000          0.408621E-03
      0.205000          0.385521E-03
      0.210000          0.364720E-03
      0.215000          0.345943E-03
      0.220000          0.328929E-03
      0.225000          0.313432E-03
      0.230000          0.299231E-03
      0.235000          0.286132E-03
      0.240000          0.273978E-03
      0.245000          0.262653E-03
      0.250000          0.252078E-03
      0.255000          0.242215E-03
      0.260000          0.233054E-03
      0.265000          0.224609E-03
      0.270000          0.216905E-03
      0.275000          0.209974E-03
      0.280000          0.203835E-03
      0.285000          0.198499E-03
      0.290000          0.193951E-03
      0.295000          0.190157E-03
      0.300000          0.187057E-03
      0.305000          0.184571E-03
      0.310000          0.182603E-03
      0.315000          0.181045E-03
      0.320000          0.179785E-03
      0.325000          0.178716E-03
      0.330000          0.177738E-03
      0.335000          0.176768E-03
      0.340000          0.175738E-03
      0.345000          0.174603E-03
      0.350000          0.173335E-03
      0.355000          0.171925E-03
      0.360000          0.170380E-03
      0.365000          0.168717E-03
      0.370000          0.166960E-03
      0.375000          0.165134E-03
      0.380000          0.163262E-03
      0.385000          0.161362E-03
      0.390000          0.159444E-03
      0.395000          0.157507E-03
      0.400000          0.155545E-03
      0.405000          0.153540E-03
      0.410000          0.151469E-03
      0.415000          0.149309E-03
      0.420000          0.147032E-03
      0.425000          0.144618E-03
      0.430000          0.142049E-03
      0.435000          0.139318E-03
      0.440000          0.136426E-03
      0.445000          0.133387E-03
      0.450000          0.130223E-03
      0.455000          0.126968E-03
      0.460000          0.123663E-03
      0.465000          0.120355E-03
      0.470000          0.117094E-03
      0.475000          0.113932E-03
      0.480000          0.110916E-03
      0.485000          0.108092E-03
      0.490000          0.105496E-03
      0.495000          0.103158E-03
      0.500000          0.101096E-03
