 I_abs(s)[cm^-1]/c[mg/ml]
       0.00000          0.143843E-01
      0.500000E-02      0.143183E-01
      0.100000E-01      0.141222E-01
      0.150000E-01      0.138014E-01
      0.200000E-01      0.133648E-01
      0.250000E-01      0.128242E-01
      0.300000E-01      0.121939E-01
      0.350000E-01      0.114902E-01
      0.400000E-01      0.107307E-01
      0.450000E-01      0.993316E-02
      0.500000E-01      0.911571E-02
      0.550000E-01      0.829543E-02
      0.600000E-01      0.748817E-02
      0.650000E-01      0.670792E-02
      0.700000E-01      0.596655E-02
      0.750000E-01      0.527350E-02
      0.800000E-01      0.463569E-02
      0.850000E-01      0.405754E-02
      0.900000E-01      0.354108E-02
      0.950000E-01      0.308619E-02
      0.100000          0.269085E-02
      0.105000          0.235155E-02
      0.110000          0.206360E-02
      0.115000          0.182155E-02
      0.120000          0.161953E-02
      0.125000          0.145160E-02
      0.130000          0.131200E-02
      0.135000          0.119542E-02
      0.140000          0.109711E-02
      0.145000          0.101303E-02
      0.150000          0.939832E-03
      0.155000          0.874914E-03
      0.160000          0.816327E-03
      0.165000          0.762706E-03
      0.170000          0.713167E-03
      0.175000          0.667194E-03
      0.180000          0.624531E-03
      0.185000          0.585078E-03
      0.190000          0.548806E-03
      0.195000          0.515688E-03
      0.200000          0.485653E-03
      0.205000          0.458558E-03
      0.210000          0.434181E-03
      0.215000          0.412223E-03
      0.220000          0.392335E-03
      0.225000          0.374134E-03
      0.230000          0.357240E-03
      0.235000          0.341296E-03
      0.240000          0.326000E-03
      0.245000          0.311117E-03
      0.250000          0.296496E-03
      0.255000          0.282067E-03
      0.260000          0.267844E-03
      0.265000          0.253910E-03
      0.270000          0.240402E-03
      0.275000          0.227495E-03
      0.280000          0.215380E-03
      0.285000          0.204248E-03
      0.290000          0.194267E-03
      0.295000          0.185571E-03
      0.300000          0.178249E-03
      0.305000          0.172335E-03
      0.310000          0.167811E-03
      0.315000          0.164605E-03
      0.320000          0.162595E-03
      0.325000          0.161621E-03
      0.330000          0.161494E-03
      0.335000          0.162003E-03
      0.340000          0.162931E-03
      0.345000          0.164067E-03
      0.350000          0.165209E-03
      0.355000          0.166179E-03
      0.360000          0.166830E-03
      0.365000          0.167044E-03
      0.370000          0.166739E-03
      0.375000          0.165872E-03
      0.380000          0.164430E-03
      0.385000          0.162434E-03
      0.390000          0.159930E-03
      0.395000          0.156988E-03
      0.400000          0.153690E-03
      0.405000          0.150132E-03
      0.410000          0.146412E-03
      0.415000          0.142627E-03
      0.420000          0.138868E-03
      0.425000          0.135215E-03
      0.430000          0.131737E-03
      0.435000          0.128486E-03
      0.440000          0.125499E-03
      0.445000          0.122798E-03
      0.450000          0.120388E-03
      0.455000          0.118264E-03
      0.460000          0.116408E-03
      0.465000          0.114793E-03
      0.470000          0.113390E-03
      0.475000          0.112163E-03
      0.480000          0.111080E-03
      0.485000          0.110107E-03
      0.490000          0.109217E-03
      0.495000          0.108387E-03
      0.500000          0.107599E-03
