 I_abs(s)[cm^-1]/c[mg/ml]
       0.00000          0.131933E-01
      0.500000E-02      0.130603E-01
      0.100000E-01      0.126695E-01
      0.150000E-01      0.120450E-01
      0.200000E-01      0.112242E-01
      0.250000E-01      0.102548E-01
      0.300000E-01      0.919023E-02
      0.350000E-01      0.808495E-02
      0.400000E-01      0.699038E-02
      0.450000E-01      0.595097E-02
      0.500000E-01      0.500147E-02
      0.550000E-01      0.416542E-02
      0.600000E-01      0.345484E-02
      0.650000E-01      0.287112E-02
      0.700000E-01      0.240680E-02
      0.750000E-01      0.204794E-02
      0.800000E-01      0.177681E-02
      0.850000E-01      0.157434E-02
      0.900000E-01      0.142238E-02
      0.950000E-01      0.130522E-02
      0.100000          0.121053E-02
      0.105000          0.112971E-02
      0.110000          0.105757E-02
      0.115000          0.991707E-03
      0.120000          0.931664E-03
      0.125000          0.878031E-03
      0.130000          0.831672E-03
      0.135000          0.793159E-03
      0.140000          0.762452E-03
      0.145000          0.738826E-03
      0.150000          0.720985E-03
      0.155000          0.707301E-03
      0.160000          0.696098E-03
      0.165000          0.685902E-03
      0.170000          0.675628E-03
      0.175000          0.664651E-03
      0.180000          0.652798E-03
      0.185000          0.640243E-03
      0.190000          0.627370E-03
      0.195000          0.614619E-03
      0.200000          0.602364E-03
      0.205000          0.590824E-03
      0.210000          0.580032E-03
      0.215000          0.569859E-03
      0.220000          0.560058E-03
      0.225000          0.550339E-03
      0.230000          0.540437E-03
      0.235000          0.530158E-03
      0.240000          0.519409E-03
      0.245000          0.508190E-03
      0.250000          0.496577E-03
      0.255000          0.484677E-03
      0.260000          0.472595E-03
      0.265000          0.460401E-03
      0.270000          0.448113E-03
      0.275000          0.435698E-03
      0.280000          0.423089E-03
      0.285000          0.410204E-03
      0.290000          0.396981E-03
      0.295000          0.383397E-03
      0.300000          0.369484E-03
      0.305000          0.355332E-03
      0.310000          0.341079E-03
      0.315000          0.326897E-03
      0.320000          0.312968E-03
      0.325000          0.299461E-03
      0.330000          0.286521E-03
      0.335000          0.274253E-03
      0.340000          0.262728E-03
      0.345000          0.251980E-03
      0.350000          0.242022E-03
      0.355000          0.232852E-03
      0.360000          0.224463E-03
      0.365000          0.216848E-03
      0.370000          0.209997E-03
      0.375000          0.203896E-03
      0.380000          0.198519E-03
      0.385000          0.193824E-03
      0.390000          0.189746E-03
      0.395000          0.186201E-03
      0.400000          0.183088E-03
      0.405000          0.180298E-03
      0.410000          0.177727E-03
      0.415000          0.175284E-03
      0.420000          0.172898E-03
      0.425000          0.170530E-03
      0.430000          0.168162E-03
      0.435000          0.165801E-03
      0.440000          0.163466E-03
      0.445000          0.161176E-03
      0.450000          0.158942E-03
      0.455000          0.156761E-03
      0.460000          0.154607E-03
      0.465000          0.152439E-03
      0.470000          0.150203E-03
      0.475000          0.147841E-03
      0.480000          0.145303E-03
      0.485000          0.142554E-03
      0.490000          0.139585E-03
      0.495000          0.136409E-03
      0.500000          0.133063E-03
