 I_abs(s)[cm^-1]/c[mg/ml]
       0.00000          0.144872E-01
      0.500000E-02      0.144198E-01
      0.100000E-01      0.142195E-01
      0.150000E-01      0.138921E-01
      0.200000E-01      0.134469E-01
      0.250000E-01      0.128964E-01
      0.300000E-01      0.122556E-01
      0.350000E-01      0.115414E-01
      0.400000E-01      0.107722E-01
      0.450000E-01      0.996657E-02
      0.500000E-01      0.914293E-02
      0.550000E-01      0.831880E-02
      0.600000E-01      0.751019E-02
      0.650000E-01      0.673105E-02
      0.700000E-01      0.599302E-02
      0.750000E-01      0.530512E-02
      0.800000E-01      0.467372E-02
      0.850000E-01      0.410259E-02
      0.900000E-01      0.359306E-02
      0.950000E-01      0.314430E-02
      0.100000          0.275366E-02
      0.105000          0.241706E-02
      0.110000          0.212941E-02
      0.115000          0.188500E-02
      0.120000          0.167789E-02
      0.125000          0.150224E-02
      0.130000          0.135256E-02
      0.135000          0.122394E-02
      0.140000          0.111213E-02
      0.145000          0.101368E-02
      0.150000          0.925851E-03
      0.155000          0.846631E-03
      0.160000          0.774615E-03
      0.165000          0.708905E-03
      0.170000          0.648977E-03
      0.175000          0.594561E-03
      0.180000          0.545523E-03
      0.185000          0.501774E-03
      0.190000          0.463191E-03
      0.195000          0.429570E-03
      0.200000          0.400603E-03
      0.205000          0.375874E-03
      0.210000          0.354877E-03
      0.215000          0.337043E-03
      0.220000          0.321776E-03
      0.225000          0.308493E-03
      0.230000          0.296656E-03
      0.235000          0.285805E-03
      0.240000          0.275579E-03
      0.245000          0.265720E-03
      0.250000          0.256081E-03
      0.255000          0.246612E-03
      0.260000          0.237346E-03
      0.265000          0.228378E-03
      0.270000          0.219840E-03
      0.275000          0.211877E-03
      0.280000          0.204629E-03
      0.285000          0.198207E-03
      0.290000          0.192687E-03
      0.295000          0.188098E-03
      0.300000          0.184422E-03
      0.305000          0.181597E-03
      0.310000          0.179522E-03
      0.315000          0.178069E-03
      0.320000          0.177095E-03
      0.325000          0.176447E-03
      0.330000          0.175980E-03
      0.335000          0.175558E-03
      0.340000          0.175067E-03
      0.345000          0.174413E-03
      0.350000          0.173528E-03
      0.355000          0.172367E-03
      0.360000          0.170905E-03
      0.365000          0.169135E-03
      0.370000          0.167065E-03
      0.375000          0.164710E-03
      0.380000          0.162094E-03
      0.385000          0.159244E-03
      0.390000          0.156186E-03
      0.395000          0.152951E-03
      0.400000          0.149566E-03
      0.405000          0.146063E-03
      0.410000          0.142473E-03
      0.415000          0.138828E-03
      0.420000          0.135165E-03
      0.425000          0.131522E-03
      0.430000          0.127941E-03
      0.435000          0.124462E-03
      0.440000          0.121129E-03
      0.445000          0.117980E-03
      0.450000          0.115051E-03
      0.455000          0.112370E-03
      0.460000          0.109959E-03
      0.465000          0.107828E-03
      0.470000          0.105978E-03
      0.475000          0.104398E-03
      0.480000          0.103065E-03
      0.485000          0.101950E-03
      0.490000          0.101013E-03
      0.495000          0.100208E-03
      0.500000          0.994891E-04
