 I_abs(s)[cm^-1]/c[mg/ml]
       0.00000          0.143369E-01
      0.500000E-02      0.142652E-01
      0.100000E-01      0.140524E-01
      0.150000E-01      0.137051E-01
      0.200000E-01      0.132343E-01
      0.250000E-01      0.126543E-01
      0.300000E-01      0.119823E-01
      0.350000E-01      0.112375E-01
      0.400000E-01      0.104403E-01
      0.450000E-01      0.961110E-02
      0.500000E-01      0.876970E-02
      0.550000E-01      0.793447E-02
      0.600000E-01      0.712166E-02
      0.650000E-01      0.634498E-02
      0.700000E-01      0.561528E-02
      0.750000E-01      0.494046E-02
      0.800000E-01      0.432549E-02
      0.850000E-01      0.377267E-02
      0.900000E-01      0.328190E-02
      0.950000E-01      0.285109E-02
      0.100000          0.247664E-02
      0.105000          0.215387E-02
      0.110000          0.187746E-02
      0.115000          0.164186E-02
      0.120000          0.144159E-02
      0.125000          0.127151E-02
      0.130000          0.112699E-02
      0.135000          0.100399E-02
      0.140000          0.899090E-03
      0.145000          0.809487E-03
      0.150000          0.732905E-03
      0.155000          0.667521E-03
      0.160000          0.611860E-03
      0.165000          0.564708E-03
      0.170000          0.525022E-03
      0.175000          0.491869E-03
      0.180000          0.464377E-03
      0.185000          0.441714E-03
      0.190000          0.423079E-03
      0.195000          0.407704E-03
      0.200000          0.394872E-03
      0.205000          0.383935E-03
      0.210000          0.374330E-03
      0.215000          0.365592E-03
      0.220000          0.357359E-03
      0.225000          0.349377E-03
      0.230000          0.341484E-03
      0.235000          0.333603E-03
      0.240000          0.325718E-03
      0.245000          0.317857E-03
      0.250000          0.310067E-03
      0.255000          0.302400E-03
      0.260000          0.294896E-03
      0.265000          0.287569E-03
      0.270000          0.280410E-03
      0.275000          0.273381E-03
      0.280000          0.266421E-03
      0.285000          0.259455E-03
      0.290000          0.252403E-03
      0.295000          0.245192E-03
      0.300000          0.237768E-03
      0.305000          0.230101E-03
      0.310000          0.222192E-03
      0.315000          0.214079E-03
      0.320000          0.205833E-03
      0.325000          0.197559E-03
      0.330000          0.189383E-03
      0.335000          0.181449E-03
      0.340000          0.173907E-03
      0.345000          0.166903E-03
      0.350000          0.160569E-03
      0.355000          0.155014E-03
      0.360000          0.150320E-03
      0.365000          0.146531E-03
      0.370000          0.143656E-03
      0.375000          0.141671E-03
      0.380000          0.140513E-03
      0.385000          0.140094E-03
      0.390000          0.140302E-03
      0.395000          0.141007E-03
      0.400000          0.142070E-03
      0.405000          0.143350E-03
      0.410000          0.144709E-03
      0.415000          0.146019E-03
      0.420000          0.147165E-03
      0.425000          0.148051E-03
      0.430000          0.148598E-03
      0.435000          0.148749E-03
      0.440000          0.148467E-03
      0.445000          0.147733E-03
      0.450000          0.146550E-03
      0.455000          0.144935E-03
      0.460000          0.142919E-03
      0.465000          0.140548E-03
      0.470000          0.137874E-03
      0.475000          0.134959E-03
      0.480000          0.131865E-03
      0.485000          0.128659E-03
      0.490000          0.125405E-03
      0.495000          0.122162E-03
      0.500000          0.118984E-03
