 I_abs(s)[cm^-1]/c[mg/ml]
       0.00000          0.145984E-01
      0.500000E-02      0.145375E-01
      0.100000E-01      0.143563E-01
      0.150000E-01      0.140594E-01
      0.200000E-01      0.136545E-01
      0.250000E-01      0.131516E-01
      0.300000E-01      0.125629E-01
      0.350000E-01      0.119024E-01
      0.400000E-01      0.111851E-01
      0.450000E-01      0.104266E-01
      0.500000E-01      0.964255E-02
      0.550000E-01      0.884793E-02
      0.600000E-01      0.805687E-02
      0.650000E-01      0.728207E-02
      0.700000E-01      0.653455E-02
      0.750000E-01      0.582347E-02
      0.800000E-01      0.515600E-02
      0.850000E-01      0.453732E-02
      0.900000E-01      0.397073E-02
      0.950000E-01      0.345775E-02
      0.100000          0.299835E-02
      0.105000          0.259120E-02
      0.110000          0.223392E-02
      0.115000          0.192335E-02
      0.120000          0.165581E-02
      0.125000          0.142731E-02
      0.130000          0.123379E-02
      0.135000          0.107122E-02
      0.140000          0.935782E-03
      0.145000          0.823920E-03
      0.150000          0.732394E-03
      0.155000          0.658298E-03
      0.160000          0.599059E-03
      0.165000          0.552411E-03
      0.170000          0.516361E-03
      0.175000          0.489155E-03
      0.180000          0.469237E-03
      0.185000          0.455217E-03
      0.190000          0.445842E-03
      0.195000          0.439980E-03
      0.200000          0.436603E-03
      0.205000          0.434784E-03
      0.210000          0.433697E-03
      0.215000          0.432620E-03
      0.220000          0.430939E-03
      0.225000          0.428155E-03
      0.230000          0.423887E-03
      0.235000          0.417875E-03
      0.240000          0.409975E-03
      0.245000          0.400157E-03
      0.250000          0.388492E-03
      0.255000          0.375143E-03
      0.260000          0.360345E-03
      0.265000          0.344396E-03
      0.270000          0.327631E-03
      0.275000          0.310407E-03
      0.280000          0.293085E-03
      0.285000          0.276016E-03
      0.290000          0.259521E-03
      0.295000          0.243885E-03
      0.300000          0.229345E-03
      0.305000          0.216083E-03
      0.310000          0.204224E-03
      0.315000          0.193836E-03
      0.320000          0.184930E-03
      0.325000          0.177468E-03
      0.330000          0.171369E-03
      0.335000          0.166515E-03
      0.340000          0.162761E-03
      0.345000          0.159947E-03
      0.350000          0.157904E-03
      0.355000          0.156465E-03
      0.360000          0.155471E-03
      0.365000          0.154778E-03
      0.370000          0.154258E-03
      0.375000          0.153808E-03
      0.380000          0.153344E-03
      0.385000          0.152805E-03
      0.390000          0.152148E-03
      0.395000          0.151344E-03
      0.400000          0.150380E-03
      0.405000          0.149247E-03
      0.410000          0.147944E-03
      0.415000          0.146469E-03
      0.420000          0.144821E-03
      0.425000          0.142997E-03
      0.430000          0.140991E-03
      0.435000          0.138795E-03
      0.440000          0.136404E-03
      0.445000          0.133810E-03
      0.450000          0.131013E-03
      0.455000          0.128016E-03
      0.460000          0.124832E-03
      0.465000          0.121482E-03
      0.470000          0.117997E-03
      0.475000          0.114417E-03
      0.480000          0.110790E-03
      0.485000          0.107173E-03
      0.490000          0.103623E-03
      0.495000          0.100204E-03
      0.500000          0.969719E-04
