 I_abs(s)[cm^-1]/c[mg/ml]
       0.00000          0.138211E-01
      0.500000E-02      0.137483E-01
      0.100000E-01      0.135324E-01
      0.150000E-01      0.131798E-01
      0.200000E-01      0.127013E-01
      0.250000E-01      0.121113E-01
      0.300000E-01      0.114270E-01
      0.350000E-01      0.106677E-01
      0.400000E-01      0.985422E-02
      0.450000E-01      0.900774E-02
      0.500000E-01      0.814901E-02
      0.550000E-01      0.729765E-02
      0.600000E-01      0.647134E-02
      0.650000E-01      0.568539E-02
      0.700000E-01      0.495223E-02
      0.750000E-01      0.428128E-02
      0.800000E-01      0.367878E-02
      0.850000E-01      0.314796E-02
      0.900000E-01      0.268922E-02
      0.950000E-01      0.230046E-02
      0.100000          0.197754E-02
      0.105000          0.171471E-02
      0.110000          0.150512E-02
      0.115000          0.134127E-02
      0.120000          0.121549E-02
      0.125000          0.112030E-02
      0.130000          0.104872E-02
      0.135000          0.994517E-03
      0.140000          0.952351E-03
      0.145000          0.917845E-03
      0.150000          0.887594E-03
      0.155000          0.859110E-03
      0.160000          0.830731E-03
      0.165000          0.801489E-03
      0.170000          0.770974E-03
      0.175000          0.739188E-03
      0.180000          0.706411E-03
      0.185000          0.673084E-03
      0.190000          0.639706E-03
      0.195000          0.606765E-03
      0.200000          0.574686E-03
      0.205000          0.543802E-03
      0.210000          0.514344E-03
      0.215000          0.486445E-03
      0.220000          0.460152E-03
      0.225000          0.435452E-03
      0.230000          0.412284E-03
      0.235000          0.390565E-03
      0.240000          0.370204E-03
      0.245000          0.351118E-03
      0.250000          0.333231E-03
      0.255000          0.316489E-03
      0.260000          0.300847E-03
      0.265000          0.286277E-03
      0.270000          0.272755E-03
      0.275000          0.260263E-03
      0.280000          0.248779E-03
      0.285000          0.238280E-03
      0.290000          0.228733E-03
      0.295000          0.220102E-03
      0.300000          0.212340E-03
      0.305000          0.205397E-03
      0.310000          0.199217E-03
      0.315000          0.193741E-03
      0.320000          0.188906E-03
      0.325000          0.184648E-03
      0.330000          0.180900E-03
      0.335000          0.177594E-03
      0.340000          0.174656E-03
      0.345000          0.172012E-03
      0.350000          0.169585E-03
      0.355000          0.167296E-03
      0.360000          0.165067E-03
      0.365000          0.162820E-03
      0.370000          0.160487E-03
      0.375000          0.158004E-03
      0.380000          0.155324E-03
      0.385000          0.152412E-03
      0.390000          0.149254E-03
      0.395000          0.145854E-03
      0.400000          0.142235E-03
      0.405000          0.138440E-03
      0.410000          0.134529E-03
      0.415000          0.130575E-03
      0.420000          0.126657E-03
      0.425000          0.122860E-03
      0.430000          0.119266E-03
      0.435000          0.115949E-03
      0.440000          0.112974E-03
      0.445000          0.110385E-03
      0.450000          0.108213E-03
      0.455000          0.106465E-03
      0.460000          0.105131E-03
      0.465000          0.104182E-03
      0.470000          0.103572E-03
      0.475000          0.103242E-03
      0.480000          0.103126E-03
      0.485000          0.103153E-03
      0.490000          0.103250E-03
      0.495000          0.103349E-03
      0.500000          0.103388E-03
