 I_abs(s)[cm^-1]/c[mg/ml]
       0.00000          0.141718E-01
      0.500000E-02      0.141056E-01
      0.100000E-01      0.139091E-01
      0.150000E-01      0.135877E-01
      0.200000E-01      0.131505E-01
      0.250000E-01      0.126094E-01
      0.300000E-01      0.119791E-01
      0.350000E-01      0.112759E-01
      0.400000E-01      0.105175E-01
      0.450000E-01      0.972199E-02
      0.500000E-01      0.890739E-02
      0.550000E-01      0.809081E-02
      0.600000E-01      0.728800E-02
      0.650000E-01      0.651285E-02
      0.700000E-01      0.577704E-02
      0.750000E-01      0.508985E-02
      0.800000E-01      0.445802E-02
      0.850000E-01      0.388584E-02
      0.900000E-01      0.337527E-02
      0.950000E-01      0.292614E-02
      0.100000          0.253649E-02
      0.105000          0.220289E-02
      0.110000          0.192081E-02
      0.115000          0.168498E-02
      0.120000          0.148972E-02
      0.125000          0.132927E-02
      0.130000          0.119800E-02
      0.135000          0.109067E-02
      0.140000          0.100255E-02
      0.145000          0.929505E-03
      0.150000          0.868046E-03
      0.155000          0.815332E-03
      0.160000          0.769127E-03
      0.165000          0.727747E-03
      0.170000          0.689974E-03
      0.175000          0.654977E-03
      0.180000          0.622227E-03
      0.185000          0.591410E-03
      0.190000          0.562364E-03
      0.195000          0.535014E-03
      0.200000          0.509331E-03
      0.205000          0.485294E-03
      0.210000          0.462873E-03
      0.215000          0.442015E-03
      0.220000          0.422641E-03
      0.225000          0.404653E-03
      0.230000          0.387933E-03
      0.235000          0.372355E-03
      0.240000          0.357795E-03
      0.245000          0.344133E-03
      0.250000          0.331262E-03
      0.255000          0.319090E-03
      0.260000          0.307541E-03
      0.265000          0.296557E-03
      0.270000          0.286093E-03
      0.275000          0.276116E-03
      0.280000          0.266601E-03
      0.285000          0.257527E-03
      0.290000          0.248877E-03
      0.295000          0.240631E-03
      0.300000          0.232769E-03
      0.305000          0.225266E-03
      0.310000          0.218097E-03
      0.315000          0.211235E-03
      0.320000          0.204651E-03
      0.325000          0.198320E-03
      0.330000          0.192217E-03
      0.335000          0.186324E-03
      0.340000          0.180629E-03
      0.345000          0.175125E-03
      0.350000          0.169812E-03
      0.355000          0.164695E-03
      0.360000          0.159788E-03
      0.365000          0.155104E-03
      0.370000          0.150663E-03
      0.375000          0.146483E-03
      0.380000          0.142582E-03
      0.385000          0.138975E-03
      0.390000          0.135675E-03
      0.395000          0.132688E-03
      0.400000          0.130016E-03
      0.405000          0.127655E-03
      0.410000          0.125596E-03
      0.415000          0.123823E-03
      0.420000          0.122317E-03
      0.425000          0.121052E-03
      0.430000          0.120001E-03
      0.435000          0.119134E-03
      0.440000          0.118417E-03
      0.445000          0.117817E-03
      0.450000          0.117300E-03
      0.455000          0.116834E-03
      0.460000          0.116388E-03
      0.465000          0.115931E-03
      0.470000          0.115439E-03
      0.475000          0.114889E-03
      0.480000          0.114264E-03
      0.485000          0.113552E-03
      0.490000          0.112743E-03
      0.495000          0.111837E-03
      0.500000          0.110833E-03
