 I_abs(s)[cm^-1]/c[mg/ml]
       0.00000          0.137515E-01
      0.500000E-02      0.136318E-01
      0.100000E-01      0.132791E-01
      0.150000E-01      0.127120E-01
      0.200000E-01      0.119596E-01
      0.250000E-01      0.110594E-01
      0.300000E-01      0.100540E-01
      0.350000E-01      0.898803E-02
      0.400000E-01      0.790500E-02
      0.450000E-01      0.684437E-02
      0.500000E-01      0.583939E-02
      0.550000E-01      0.491568E-02
      0.600000E-01      0.409058E-02
      0.650000E-01      0.337337E-02
      0.700000E-01      0.276607E-02
      0.750000E-01      0.226474E-02
      0.800000E-01      0.186104E-02
      0.850000E-01      0.154389E-02
      0.900000E-01      0.130087E-02
      0.950000E-01      0.111951E-02
      0.100000          0.988095E-03
      0.105000          0.896250E-03
      0.110000          0.835098E-03
      0.115000          0.797236E-03
      0.120000          0.776531E-03
      0.125000          0.767865E-03
      0.130000          0.766886E-03
      0.135000          0.769828E-03
      0.140000          0.773421E-03
      0.145000          0.774884E-03
      0.150000          0.771986E-03
      0.155000          0.763128E-03
      0.160000          0.747420E-03
      0.165000          0.724707E-03
      0.170000          0.695542E-03
      0.175000          0.661081E-03
      0.180000          0.622929E-03
      0.185000          0.582940E-03
      0.190000          0.543009E-03
      0.195000          0.504879E-03
      0.200000          0.469983E-03
      0.205000          0.439341E-03
      0.210000          0.413512E-03
      0.215000          0.392608E-03
      0.220000          0.376346E-03
      0.225000          0.364136E-03
      0.230000          0.355186E-03
      0.235000          0.348600E-03
      0.240000          0.343477E-03
      0.245000          0.338982E-03
      0.250000          0.334399E-03
      0.255000          0.329172E-03
      0.260000          0.322912E-03
      0.265000          0.315402E-03
      0.270000          0.306587E-03
      0.275000          0.296555E-03
      0.280000          0.285510E-03
      0.285000          0.273747E-03
      0.290000          0.261618E-03
      0.295000          0.249502E-03
      0.300000          0.237768E-03
      0.305000          0.226749E-03
      0.310000          0.216719E-03
      0.315000          0.207870E-03
      0.320000          0.200307E-03
      0.325000          0.194048E-03
      0.330000          0.189031E-03
      0.335000          0.185129E-03
      0.340000          0.182171E-03
      0.345000          0.179960E-03
      0.350000          0.178292E-03
      0.355000          0.176973E-03
      0.360000          0.175829E-03
      0.365000          0.174709E-03
      0.370000          0.173491E-03
      0.375000          0.172080E-03
      0.380000          0.170404E-03
      0.385000          0.168413E-03
      0.390000          0.166079E-03
      0.395000          0.163399E-03
      0.400000          0.160389E-03
      0.405000          0.157093E-03
      0.410000          0.153576E-03
      0.415000          0.149926E-03
      0.420000          0.146248E-03
      0.425000          0.142652E-03
      0.430000          0.139249E-03
      0.435000          0.136134E-03
      0.440000          0.133381E-03
      0.445000          0.131032E-03
      0.450000          0.129096E-03
      0.455000          0.127545E-03
      0.460000          0.126323E-03
      0.465000          0.125346E-03
      0.470000          0.124520E-03
      0.475000          0.123746E-03
      0.480000          0.122931E-03
      0.485000          0.121999E-03
      0.490000          0.120892E-03
      0.495000          0.119573E-03
      0.500000          0.118031E-03
