 I_abs(s)[cm^-1]/c[mg/ml]
       0.00000          0.142818E-01
      0.500000E-02      0.142053E-01
      0.100000E-01      0.139786E-01
      0.150000E-01      0.136089E-01
      0.200000E-01      0.131082E-01
      0.250000E-01      0.124923E-01
      0.300000E-01      0.117802E-01
      0.350000E-01      0.109930E-01
      0.400000E-01      0.101530E-01
      0.450000E-01      0.928282E-02
      0.500000E-01      0.840414E-02
      0.550000E-01      0.753710E-02
      0.600000E-01      0.669946E-02
      0.650000E-01      0.590612E-02
      0.700000E-01      0.516874E-02
      0.750000E-01      0.449562E-02
      0.800000E-01      0.389178E-02
      0.850000E-01      0.335911E-02
      0.900000E-01      0.289679E-02
      0.950000E-01      0.250171E-02
      0.100000          0.216897E-02
      0.105000          0.189243E-02
      0.110000          0.166522E-02
      0.115000          0.148018E-02
      0.120000          0.133028E-02
      0.125000          0.120890E-02
      0.130000          0.111012E-02
      0.135000          0.102878E-02
      0.140000          0.960586E-03
      0.145000          0.902079E-03
      0.150000          0.850597E-03
      0.155000          0.804168E-03
      0.160000          0.761401E-03
      0.165000          0.721370E-03
      0.170000          0.683502E-03
      0.175000          0.647476E-03
      0.180000          0.613141E-03
      0.185000          0.580454E-03
      0.190000          0.549434E-03
      0.195000          0.520131E-03
      0.200000          0.492608E-03
      0.205000          0.466929E-03
      0.210000          0.443149E-03
      0.215000          0.421314E-03
      0.220000          0.401455E-03
      0.225000          0.383575E-03
      0.230000          0.367653E-03
      0.235000          0.353628E-03
      0.240000          0.341399E-03
      0.245000          0.330823E-03
      0.250000          0.321713E-03
      0.255000          0.313842E-03
      0.260000          0.306955E-03
      0.265000          0.300781E-03
      0.270000          0.295044E-03
      0.275000          0.289481E-03
      0.280000          0.283858E-03
      0.285000          0.277981E-03
      0.290000          0.271708E-03
      0.295000          0.264954E-03
      0.300000          0.257693E-03
      0.305000          0.249955E-03
      0.310000          0.241822E-03
      0.315000          0.233411E-03
      0.320000          0.224869E-03
      0.325000          0.216357E-03
      0.330000          0.208034E-03
      0.335000          0.200048E-03
      0.340000          0.192527E-03
      0.345000          0.185567E-03
      0.350000          0.179234E-03
      0.355000          0.173555E-03
      0.360000          0.168528E-03
      0.365000          0.164116E-03
      0.370000          0.160262E-03
      0.375000          0.156888E-03
      0.380000          0.153907E-03
      0.385000          0.151226E-03
      0.390000          0.148755E-03
      0.395000          0.146414E-03
      0.400000          0.144132E-03
      0.405000          0.141853E-03
      0.410000          0.139538E-03
      0.415000          0.137164E-03
      0.420000          0.134724E-03
      0.425000          0.132221E-03
      0.430000          0.129674E-03
      0.435000          0.127105E-03
      0.440000          0.124543E-03
      0.445000          0.122019E-03
      0.450000          0.119561E-03
      0.455000          0.117193E-03
      0.460000          0.114937E-03
      0.465000          0.112802E-03
      0.470000          0.110795E-03
      0.475000          0.108911E-03
      0.480000          0.107142E-03
      0.485000          0.105470E-03
      0.490000          0.103876E-03
      0.495000          0.102337E-03
      0.500000          0.100830E-03
