 I_abs(s)[cm^-1]/c[mg/ml]
       0.00000          0.144396E-01
      0.500000E-02      0.143772E-01
      0.100000E-01      0.141913E-01
      0.150000E-01      0.138867E-01
      0.200000E-01      0.134708E-01
      0.250000E-01      0.129538E-01
      0.300000E-01      0.123480E-01
      0.350000E-01      0.116676E-01
      0.400000E-01      0.109277E-01
      0.450000E-01      0.101447E-01
      0.500000E-01      0.933461E-02
      0.550000E-01      0.851346E-02
      0.600000E-01      0.769627E-02
      0.650000E-01      0.689685E-02
      0.700000E-01      0.612737E-02
      0.750000E-01      0.539814E-02
      0.800000E-01      0.471739E-02
      0.850000E-01      0.409126E-02
      0.900000E-01      0.352375E-02
      0.950000E-01      0.301682E-02
      0.100000          0.257062E-02
      0.105000          0.218364E-02
      0.110000          0.185298E-02
      0.115000          0.157470E-02
      0.120000          0.134404E-02
      0.125000          0.115575E-02
      0.130000          0.100435E-02
      0.135000          0.884372E-03
      0.140000          0.790565E-03
      0.145000          0.718041E-03
      0.150000          0.662400E-03
      0.155000          0.619797E-03
      0.160000          0.586977E-03
      0.165000          0.561269E-03
      0.170000          0.540553E-03
      0.175000          0.523207E-03
      0.180000          0.508042E-03
      0.185000          0.494223E-03
      0.190000          0.481195E-03
      0.195000          0.468612E-03
      0.200000          0.456273E-03
      0.205000          0.444068E-03
      0.210000          0.431939E-03
      0.215000          0.419848E-03
      0.220000          0.407763E-03
      0.225000          0.395647E-03
      0.230000          0.383459E-03
      0.235000          0.371157E-03
      0.240000          0.358708E-03
      0.245000          0.346091E-03
      0.250000          0.333312E-03
      0.255000          0.320402E-03
      0.260000          0.307421E-03
      0.265000          0.294459E-03
      0.270000          0.281630E-03
      0.275000          0.269064E-03
      0.280000          0.256900E-03
      0.285000          0.245276E-03
      0.290000          0.234317E-03
      0.295000          0.224133E-03
      0.300000          0.214804E-03
      0.305000          0.206380E-03
      0.310000          0.198880E-03
      0.315000          0.192287E-03
      0.320000          0.186556E-03
      0.325000          0.181615E-03
      0.330000          0.177372E-03
      0.335000          0.173722E-03
      0.340000          0.170553E-03
      0.345000          0.167754E-03
      0.350000          0.165220E-03
      0.355000          0.162855E-03
      0.360000          0.160581E-03
      0.365000          0.158331E-03
      0.370000          0.156060E-03
      0.375000          0.153737E-03
      0.380000          0.151346E-03
      0.385000          0.148881E-03
      0.390000          0.146350E-03
      0.395000          0.143764E-03
      0.400000          0.141140E-03
      0.405000          0.138494E-03
      0.410000          0.135845E-03
      0.415000          0.133208E-03
      0.420000          0.130596E-03
      0.425000          0.128022E-03
      0.430000          0.125493E-03
      0.435000          0.123018E-03
      0.440000          0.120603E-03
      0.445000          0.118255E-03
      0.450000          0.115983E-03
      0.455000          0.113795E-03
      0.460000          0.111701E-03
      0.465000          0.109713E-03
      0.470000          0.107845E-03
      0.475000          0.106108E-03
      0.480000          0.104516E-03
      0.485000          0.103078E-03
      0.490000          0.101804E-03
      0.495000          0.100698E-03
      0.500000          0.997598E-04
