 I_abs(s)[cm^-1]/c[mg/ml]
       0.00000          0.138986E-01
      0.500000E-02      0.137915E-01
      0.100000E-01      0.134755E-01
      0.150000E-01      0.129657E-01
      0.200000E-01      0.122861E-01
      0.250000E-01      0.114678E-01
      0.300000E-01      0.105460E-01
      0.350000E-01      0.955849E-02
      0.400000E-01      0.854214E-02
      0.450000E-01      0.753122E-02
      0.500000E-01      0.655544E-02
      0.550000E-01      0.563867E-02
      0.600000E-01      0.479843E-02
      0.650000E-01      0.404583E-02
      0.700000E-01      0.338612E-02
      0.750000E-01      0.281953E-02
      0.800000E-01      0.234240E-02
      0.850000E-01      0.194832E-02
      0.900000E-01      0.162921E-02
      0.950000E-01      0.137623E-02
      0.100000          0.118045E-02
      0.105000          0.103329E-02
      0.110000          0.926738E-03
      0.115000          0.853414E-03
      0.120000          0.806540E-03
      0.125000          0.779876E-03
      0.130000          0.767675E-03
      0.135000          0.764690E-03
      0.140000          0.766237E-03
      0.145000          0.768304E-03
      0.150000          0.767675E-03
      0.155000          0.762043E-03
      0.160000          0.750071E-03
      0.165000          0.731377E-03
      0.170000          0.706445E-03
      0.175000          0.676454E-03
      0.180000          0.643043E-03
      0.185000          0.608062E-03
      0.190000          0.573311E-03
      0.195000          0.540326E-03
      0.200000          0.510218E-03
      0.205000          0.483601E-03
      0.210000          0.460582E-03
      0.215000          0.440834E-03
      0.220000          0.423715E-03
      0.225000          0.408413E-03
      0.230000          0.394101E-03
      0.235000          0.380060E-03
      0.240000          0.365774E-03
      0.245000          0.350981E-03
      0.250000          0.335673E-03
      0.255000          0.320057E-03
      0.260000          0.304493E-03
      0.265000          0.289411E-03
      0.270000          0.275235E-03
      0.275000          0.262317E-03
      0.280000          0.250890E-03
      0.285000          0.241049E-03
      0.290000          0.232749E-03
      0.295000          0.225832E-03
      0.300000          0.220059E-03
      0.305000          0.215150E-03
      0.310000          0.210820E-03
      0.315000          0.206815E-03
      0.320000          0.202927E-03
      0.325000          0.199011E-03
      0.330000          0.194974E-03
      0.335000          0.190778E-03
      0.340000          0.186417E-03
      0.345000          0.181909E-03
      0.350000          0.177283E-03
      0.355000          0.172571E-03
      0.360000          0.167802E-03
      0.365000          0.163006E-03
      0.370000          0.158216E-03
      0.375000          0.153474E-03
      0.380000          0.148835E-03
      0.385000          0.144368E-03
      0.390000          0.140156E-03
      0.395000          0.136292E-03
      0.400000          0.132870E-03
      0.405000          0.129974E-03
      0.410000          0.127671E-03
      0.415000          0.125995E-03
      0.420000          0.124947E-03
      0.425000          0.124487E-03
      0.430000          0.124535E-03
      0.435000          0.124980E-03
      0.440000          0.125687E-03
      0.445000          0.126509E-03
      0.450000          0.127300E-03
      0.455000          0.127928E-03
      0.460000          0.128284E-03
      0.465000          0.128288E-03
      0.470000          0.127894E-03
      0.475000          0.127089E-03
      0.480000          0.125884E-03
      0.485000          0.124312E-03
      0.490000          0.122420E-03
      0.495000          0.120258E-03
      0.500000          0.117872E-03
