 I_abs(s)[cm^-1]/c[mg/ml]
       0.00000          0.138676E-01
      0.500000E-02      0.137558E-01
      0.100000E-01      0.134262E-01
      0.150000E-01      0.128948E-01
      0.200000E-01      0.121874E-01
      0.250000E-01      0.113372E-01
      0.300000E-01      0.103829E-01
      0.350000E-01      0.936549E-02
      0.400000E-01      0.832595E-02
      0.450000E-01      0.730248E-02
      0.500000E-01      0.632832E-02
      0.550000E-01      0.543011E-02
      0.600000E-01      0.462683E-02
      0.650000E-01      0.392947E-02
      0.700000E-01      0.334129E-02
      0.750000E-01      0.285874E-02
      0.800000E-01      0.247272E-02
      0.850000E-01      0.217020E-02
      0.900000E-01      0.193591E-02
      0.950000E-01      0.175400E-02
      0.100000          0.160943E-02
      0.105000          0.148913E-02
      0.110000          0.138273E-02
      0.115000          0.128293E-02
      0.120000          0.118543E-02
      0.125000          0.108865E-02
      0.130000          0.993131E-03
      0.135000          0.900826E-03
      0.140000          0.814410E-03
      0.145000          0.736594E-03
      0.150000          0.669587E-03
      0.155000          0.614733E-03
      0.160000          0.572331E-03
      0.165000          0.541642E-03
      0.170000          0.521041E-03
      0.175000          0.508282E-03
      0.180000          0.500815E-03
      0.185000          0.496111E-03
      0.190000          0.491936E-03
      0.195000          0.486568E-03
      0.200000          0.478906E-03
      0.205000          0.468490E-03
      0.210000          0.455439E-03
      0.215000          0.440315E-03
      0.220000          0.423954E-03
      0.225000          0.407286E-03
      0.230000          0.391169E-03
      0.235000          0.376265E-03
      0.240000          0.362958E-03
      0.245000          0.351335E-03
      0.250000          0.341212E-03
      0.255000          0.332200E-03
      0.260000          0.323797E-03
      0.265000          0.315486E-03
      0.270000          0.306827E-03
      0.275000          0.297525E-03
      0.280000          0.287472E-03
      0.285000          0.276750E-03
      0.290000          0.265612E-03
      0.295000          0.254434E-03
      0.300000          0.243648E-03
      0.305000          0.233681E-03
      0.310000          0.224888E-03
      0.315000          0.217509E-03
      0.320000          0.211640E-03
      0.325000          0.207229E-03
      0.330000          0.204090E-03
      0.335000          0.201937E-03
      0.340000          0.200427E-03
      0.345000          0.199207E-03
      0.350000          0.197959E-03
      0.355000          0.196437E-03
      0.360000          0.194485E-03
      0.365000          0.192049E-03
      0.370000          0.189167E-03
      0.375000          0.185953E-03
      0.380000          0.182566E-03
      0.385000          0.179180E-03
      0.390000          0.175955E-03
      0.395000          0.173008E-03
      0.400000          0.170403E-03
      0.405000          0.168135E-03
      0.410000          0.166142E-03
      0.415000          0.164308E-03
      0.420000          0.162489E-03
      0.425000          0.160529E-03
      0.430000          0.158282E-03
      0.435000          0.155637E-03
      0.440000          0.152524E-03
      0.445000          0.148925E-03
      0.450000          0.144878E-03
      0.455000          0.140466E-03
      0.460000          0.135807E-03
      0.465000          0.131043E-03
      0.470000          0.126320E-03
      0.475000          0.121775E-03
      0.480000          0.117522E-03
      0.485000          0.113646E-03
      0.490000          0.110192E-03
      0.495000          0.107172E-03
      0.500000          0.104563E-03
