 I_abs(s)[cm^-1]/c[mg/ml]
       0.00000          0.145984E-01
      0.500000E-02      0.145226E-01
      0.100000E-01      0.142977E-01
      0.150000E-01      0.139307E-01
      0.200000E-01      0.134330E-01
      0.250000E-01      0.128198E-01
      0.300000E-01      0.121093E-01
      0.350000E-01      0.113219E-01
      0.400000E-01      0.104793E-01
      0.450000E-01      0.960340E-02
      0.500000E-01      0.871566E-02
      0.550000E-01      0.783596E-02
      0.600000E-01      0.698206E-02
      0.650000E-01      0.616903E-02
      0.700000E-01      0.540884E-02
      0.750000E-01      0.471025E-02
      0.800000E-01      0.407875E-02
      0.850000E-01      0.351676E-02
      0.900000E-01      0.302396E-02
      0.950000E-01      0.259767E-02
      0.100000          0.223340E-02
      0.105000          0.192536E-02
      0.110000          0.166696E-02
      0.115000          0.145133E-02
      0.120000          0.127175E-02
      0.125000          0.112195E-02
      0.130000          0.996408E-03
      0.135000          0.890448E-03
      0.140000          0.800331E-03
      0.145000          0.723213E-03
      0.150000          0.657049E-03
      0.155000          0.600458E-03
      0.160000          0.552554E-03
      0.165000          0.512771E-03
      0.170000          0.480699E-03
      0.175000          0.455945E-03
      0.180000          0.438025E-03
      0.185000          0.426296E-03
      0.190000          0.419930E-03
      0.195000          0.417921E-03
      0.200000          0.419124E-03
      0.205000          0.422321E-03
      0.210000          0.426286E-03
      0.215000          0.429872E-03
      0.220000          0.432074E-03
      0.225000          0.432093E-03
      0.230000          0.429373E-03
      0.235000          0.423623E-03
      0.240000          0.414810E-03
      0.245000          0.403142E-03
      0.250000          0.389029E-03
      0.255000          0.373030E-03
      0.260000          0.355797E-03
      0.265000          0.338016E-03
      0.270000          0.320356E-03
      0.275000          0.303413E-03
      0.280000          0.287684E-03
      0.285000          0.273532E-03
      0.290000          0.261181E-03
      0.295000          0.250717E-03
      0.300000          0.242093E-03
      0.305000          0.235158E-03
      0.310000          0.229673E-03
      0.315000          0.225348E-03
      0.320000          0.221865E-03
      0.325000          0.218907E-03
      0.330000          0.216179E-03
      0.335000          0.213427E-03
      0.340000          0.210451E-03
      0.345000          0.207107E-03
      0.350000          0.203311E-03
      0.355000          0.199036E-03
      0.360000          0.194301E-03
      0.365000          0.189165E-03
      0.370000          0.183714E-03
      0.375000          0.178053E-03
      0.380000          0.172293E-03
      0.385000          0.166546E-03
      0.390000          0.160915E-03
      0.395000          0.155489E-03
      0.400000          0.150343E-03
      0.405000          0.145536E-03
      0.410000          0.141106E-03
      0.415000          0.137079E-03
      0.420000          0.133463E-03
      0.425000          0.130255E-03
      0.430000          0.127439E-03
      0.435000          0.124994E-03
      0.440000          0.122887E-03
      0.445000          0.121083E-03
      0.450000          0.119539E-03
      0.455000          0.118211E-03
      0.460000          0.117052E-03
      0.465000          0.116012E-03
      0.470000          0.115042E-03
      0.475000          0.114093E-03
      0.480000          0.113121E-03
      0.485000          0.112082E-03
      0.490000          0.110940E-03
      0.495000          0.109664E-03
      0.500000          0.108234E-03
