 I_abs(s)[cm^-1]/c[mg/ml]
       0.00000          0.142346E-01
      0.500000E-02      0.141575E-01
      0.100000E-01      0.139285E-01
      0.150000E-01      0.135545E-01
      0.200000E-01      0.130468E-01
      0.250000E-01      0.124204E-01
      0.300000E-01      0.116935E-01
      0.350000E-01      0.108863E-01
      0.400000E-01      0.100210E-01
      0.450000E-01      0.911985E-02
      0.500000E-01      0.820519E-02
      0.550000E-01      0.729799E-02
      0.600000E-01      0.641740E-02
      0.650000E-01      0.558007E-02
      0.700000E-01      0.479973E-02
      0.750000E-01      0.408687E-02
      0.800000E-01      0.344866E-02
      0.850000E-01      0.288896E-02
      0.900000E-01      0.240856E-02
      0.950000E-01      0.200547E-02
      0.100000          0.167533E-02
      0.105000          0.141194E-02
      0.110000          0.120771E-02
      0.115000          0.105425E-02
      0.120000          0.942813E-03
      0.125000          0.864773E-03
      0.130000          0.811975E-03
      0.135000          0.777050E-03
      0.140000          0.753617E-03
      0.145000          0.736410E-03
      0.150000          0.721322E-03
      0.155000          0.705377E-03
      0.160000          0.686647E-03
      0.165000          0.664118E-03
      0.170000          0.637538E-03
      0.175000          0.607244E-03
      0.180000          0.573986E-03
      0.185000          0.538770E-03
      0.190000          0.502711E-03
      0.195000          0.466917E-03
      0.200000          0.432396E-03
      0.205000          0.399996E-03
      0.210000          0.370364E-03
      0.215000          0.343937E-03
      0.220000          0.320945E-03
      0.225000          0.301431E-03
      0.230000          0.285286E-03
      0.235000          0.272275E-03
      0.240000          0.262080E-03
      0.245000          0.254332E-03
      0.250000          0.248639E-03
      0.255000          0.244614E-03
      0.260000          0.241891E-03
      0.265000          0.240139E-03
      0.270000          0.239069E-03
      0.275000          0.238439E-03
      0.280000          0.238051E-03
      0.285000          0.237751E-03
      0.290000          0.237421E-03
      0.295000          0.236981E-03
      0.300000          0.236375E-03
      0.305000          0.235571E-03
      0.310000          0.234557E-03
      0.315000          0.233333E-03
      0.320000          0.231908E-03
      0.325000          0.230300E-03
      0.330000          0.228528E-03
      0.335000          0.226611E-03
      0.340000          0.224568E-03
      0.345000          0.222412E-03
      0.350000          0.220153E-03
      0.355000          0.217791E-03
      0.360000          0.215325E-03
      0.365000          0.212745E-03
      0.370000          0.210036E-03
      0.375000          0.207181E-03
      0.380000          0.204162E-03
      0.385000          0.200960E-03
      0.390000          0.197560E-03
      0.395000          0.193953E-03
      0.400000          0.190136E-03
      0.405000          0.186113E-03
      0.410000          0.181899E-03
      0.415000          0.177517E-03
      0.420000          0.172998E-03
      0.425000          0.168383E-03
      0.430000          0.163715E-03
      0.435000          0.159046E-03
      0.440000          0.154427E-03
      0.445000          0.149909E-03
      0.450000          0.145542E-03
      0.455000          0.141370E-03
      0.460000          0.137432E-03
      0.465000          0.133760E-03
      0.470000          0.130376E-03
      0.475000          0.127294E-03
      0.480000          0.124518E-03
      0.485000          0.122045E-03
      0.490000          0.119860E-03
      0.495000          0.117944E-03
      0.500000          0.116270E-03
