 I_abs(s)[cm^-1]/c[mg/ml]
       0.00000          0.138598E-01
      0.500000E-02      0.137777E-01
      0.100000E-01      0.135344E-01
      0.150000E-01      0.131398E-01
      0.200000E-01      0.126092E-01
      0.250000E-01      0.119627E-01
      0.300000E-01      0.112240E-01
      0.350000E-01      0.104187E-01
      0.400000E-01      0.957323E-02
      0.450000E-01      0.871292E-02
      0.500000E-01      0.786114E-02
      0.550000E-01      0.703807E-02
      0.600000E-01      0.626007E-02
      0.650000E-01      0.553928E-02
      0.700000E-01      0.488352E-02
      0.750000E-01      0.429657E-02
      0.800000E-01      0.377866E-02
      0.850000E-01      0.332704E-02
      0.900000E-01      0.293682E-02
      0.950000E-01      0.260168E-02
      0.100000          0.231460E-02
      0.105000          0.206847E-02
      0.110000          0.185661E-02
      0.115000          0.167308E-02
      0.120000          0.151287E-02
      0.125000          0.137196E-02
      0.130000          0.124727E-02
      0.135000          0.113650E-02
      0.140000          0.103800E-02
      0.145000          0.950543E-03
      0.150000          0.873179E-03
      0.155000          0.805074E-03
      0.160000          0.745416E-03
      0.165000          0.693356E-03
      0.170000          0.647989E-03
      0.175000          0.608363E-03
      0.180000          0.573513E-03
      0.185000          0.542500E-03
      0.190000          0.514456E-03
      0.195000          0.488617E-03
      0.200000          0.464348E-03
      0.205000          0.441157E-03
      0.210000          0.418692E-03
      0.215000          0.396737E-03
      0.220000          0.375191E-03
      0.225000          0.354052E-03
      0.230000          0.333394E-03
      0.235000          0.313349E-03
      0.240000          0.294085E-03
      0.245000          0.275790E-03
      0.250000          0.258654E-03
      0.255000          0.242859E-03
      0.260000          0.228556E-03
      0.265000          0.215865E-03
      0.270000          0.204854E-03
      0.275000          0.195540E-03
      0.280000          0.187885E-03
      0.285000          0.181794E-03
      0.290000          0.177127E-03
      0.295000          0.173707E-03
      0.300000          0.171335E-03
      0.305000          0.169803E-03
      0.310000          0.168913E-03
      0.315000          0.168488E-03
      0.320000          0.168381E-03
      0.325000          0.168481E-03
      0.330000          0.168710E-03
      0.335000          0.169018E-03
      0.340000          0.169377E-03
      0.345000          0.169766E-03
      0.350000          0.170162E-03
      0.355000          0.170533E-03
      0.360000          0.170829E-03
      0.365000          0.170987E-03
      0.370000          0.170928E-03
      0.375000          0.170569E-03
      0.380000          0.169834E-03
      0.385000          0.168662E-03
      0.390000          0.167018E-03
      0.395000          0.164901E-03
      0.400000          0.162348E-03
      0.405000          0.159428E-03
      0.410000          0.156243E-03
      0.415000          0.152910E-03
      0.420000          0.149554E-03
      0.425000          0.146291E-03
      0.430000          0.143217E-03
      0.435000          0.140399E-03
      0.440000          0.137871E-03
      0.445000          0.135628E-03
      0.450000          0.133636E-03
      0.455000          0.131837E-03
      0.460000          0.130161E-03
      0.465000          0.128536E-03
      0.470000          0.126900E-03
      0.475000          0.125211E-03
      0.480000          0.123451E-03
      0.485000          0.121629E-03
      0.490000          0.119776E-03
      0.495000          0.117944E-03
      0.500000          0.116193E-03
