 I_abs(s)[cm^-1]/c[mg/ml]
       0.00000          0.138909E-01
      0.500000E-02      0.137721E-01
      0.100000E-01      0.134228E-01
      0.150000E-01      0.128631E-01
      0.200000E-01      0.121244E-01
      0.250000E-01      0.112464E-01
      0.300000E-01      0.102732E-01
      0.350000E-01      0.925017E-02
      0.400000E-01      0.821958E-02
      0.450000E-01      0.721825E-02
      0.500000E-01      0.627534E-02
      0.550000E-01      0.541140E-02
      0.600000E-01      0.463840E-02
      0.650000E-01      0.396066E-02
      0.700000E-01      0.337628E-02
      0.750000E-01      0.287896E-02
      0.800000E-01      0.245982E-02
      0.850000E-01      0.210896E-02
      0.900000E-01      0.181668E-02
      0.950000E-01      0.157423E-02
      0.100000          0.137412E-02
      0.105000          0.121016E-02
      0.110000          0.107711E-02
      0.115000          0.970434E-03
      0.120000          0.885967E-03
      0.125000          0.819689E-03
      0.130000          0.767680E-03
      0.135000          0.726187E-03
      0.140000          0.691776E-03
      0.145000          0.661531E-03
      0.150000          0.633221E-03
      0.155000          0.605395E-03
      0.160000          0.577388E-03
      0.165000          0.549221E-03
      0.170000          0.521425E-03
      0.175000          0.494822E-03
      0.180000          0.470292E-03
      0.185000          0.448575E-03
      0.190000          0.430127E-03
      0.195000          0.415050E-03
      0.200000          0.403083E-03
      0.205000          0.393669E-03
      0.210000          0.386046E-03
      0.215000          0.379370E-03
      0.220000          0.372828E-03
      0.225000          0.365742E-03
      0.230000          0.357632E-03
      0.235000          0.348253E-03
      0.240000          0.337593E-03
      0.245000          0.325840E-03
      0.250000          0.313338E-03
      0.255000          0.300514E-03
      0.260000          0.287821E-03
      0.265000          0.275672E-03
      0.270000          0.264395E-03
      0.275000          0.254206E-03
      0.280000          0.245198E-03
      0.285000          0.237351E-03
      0.290000          0.230554E-03
      0.295000          0.224641E-03
      0.300000          0.219425E-03
      0.305000          0.214732E-03
      0.310000          0.210425E-03
      0.315000          0.206413E-03
      0.320000          0.202649E-03
      0.325000          0.199118E-03
      0.330000          0.195819E-03
      0.335000          0.192746E-03
      0.340000          0.189868E-03
      0.345000          0.187128E-03
      0.350000          0.184443E-03
      0.355000          0.181714E-03
      0.360000          0.178851E-03
      0.365000          0.175787E-03
      0.370000          0.172498E-03
      0.375000          0.169011E-03
      0.380000          0.165404E-03
      0.385000          0.161797E-03
      0.390000          0.158326E-03
      0.395000          0.155128E-03
      0.400000          0.152311E-03
      0.405000          0.149936E-03
      0.410000          0.148011E-03
      0.415000          0.146482E-03
      0.420000          0.145250E-03
      0.425000          0.144180E-03
      0.430000          0.143124E-03
      0.435000          0.141941E-03
      0.440000          0.140514E-03
      0.445000          0.138763E-03
      0.450000          0.136650E-03
      0.455000          0.134180E-03
      0.460000          0.131392E-03
      0.465000          0.128356E-03
      0.470000          0.125156E-03
      0.475000          0.121882E-03
      0.480000          0.118623E-03
      0.485000          0.115455E-03
      0.490000          0.112439E-03
      0.495000          0.109618E-03
      0.500000          0.107013E-03
