 I_abs(s)[cm^-1]/c[mg/ml]
       0.00000          0.139219E-01
      0.500000E-02      0.138188E-01
      0.100000E-01      0.135139E-01
      0.150000E-01      0.130209E-01
      0.200000E-01      0.123611E-01
      0.250000E-01      0.115625E-01
      0.300000E-01      0.106577E-01
      0.350000E-01      0.968175E-02
      0.400000E-01      0.867011E-02
      0.450000E-01      0.765661E-02
      0.500000E-01      0.667165E-02
      0.550000E-01      0.574083E-02
      0.600000E-01      0.488404E-02
      0.650000E-01      0.411510E-02
      0.700000E-01      0.344172E-02
      0.750000E-01      0.286608E-02
      0.800000E-01      0.238551E-02
      0.850000E-01      0.199357E-02
      0.900000E-01      0.168109E-02
      0.950000E-01      0.143728E-02
      0.100000          0.125072E-02
      0.105000          0.111019E-02
      0.110000          0.100531E-02
      0.115000          0.926945E-03
      0.120000          0.867468E-03
      0.125000          0.820797E-03
      0.130000          0.782328E-03
      0.135000          0.748764E-03
      0.140000          0.717910E-03
      0.145000          0.688432E-03
      0.150000          0.659645E-03
      0.155000          0.631311E-03
      0.160000          0.603488E-03
      0.165000          0.576404E-03
      0.170000          0.550367E-03
      0.175000          0.525710E-03
      0.180000          0.502738E-03
      0.185000          0.481710E-03
      0.190000          0.462812E-03
      0.195000          0.446146E-03
      0.200000          0.431724E-03
      0.205000          0.419461E-03
      0.210000          0.409185E-03
      0.215000          0.400641E-03
      0.220000          0.393511E-03
      0.225000          0.387434E-03
      0.230000          0.382031E-03
      0.235000          0.376934E-03
      0.240000          0.371810E-03
      0.245000          0.366381E-03
      0.250000          0.360446E-03
      0.255000          0.353883E-03
      0.260000          0.346658E-03
      0.265000          0.338812E-03
      0.270000          0.330451E-03
      0.275000          0.321726E-03
      0.280000          0.312814E-03
      0.285000          0.303893E-03
      0.290000          0.295121E-03
      0.295000          0.286622E-03
      0.300000          0.278471E-03
      0.305000          0.270690E-03
      0.310000          0.263252E-03
      0.315000          0.256087E-03
      0.320000          0.249096E-03
      0.325000          0.242171E-03
      0.330000          0.235209E-03
      0.335000          0.228134E-03
      0.340000          0.220907E-03
      0.345000          0.213537E-03
      0.350000          0.206080E-03
      0.355000          0.198639E-03
      0.360000          0.191348E-03
      0.365000          0.184360E-03
      0.370000          0.177829E-03
      0.375000          0.171890E-03
      0.380000          0.166646E-03
      0.385000          0.162155E-03
      0.390000          0.158423E-03
      0.395000          0.155406E-03
      0.400000          0.153012E-03
      0.405000          0.151116E-03
      0.410000          0.149567E-03
      0.415000          0.148208E-03
      0.420000          0.146887E-03
      0.425000          0.145468E-03
      0.430000          0.143841E-03
      0.435000          0.141925E-03
      0.440000          0.139672E-03
      0.445000          0.137061E-03
      0.450000          0.134099E-03
      0.455000          0.130811E-03
      0.460000          0.127240E-03
      0.465000          0.123437E-03
      0.470000          0.119461E-03
      0.475000          0.115378E-03
      0.480000          0.111255E-03
      0.485000          0.107160E-03
      0.490000          0.103163E-03
      0.495000          0.993321E-04
      0.500000          0.957287E-04
