 I_abs(s)[cm^-1]/c[mg/ml]
       0.00000          0.144080E-01
      0.500000E-02      0.143166E-01
      0.100000E-01      0.140457E-01
      0.150000E-01      0.136058E-01
      0.200000E-01      0.130133E-01
      0.250000E-01      0.122899E-01
      0.300000E-01      0.114613E-01
      0.350000E-01      0.105555E-01
      0.400000E-01      0.960165E-02
      0.450000E-01      0.862837E-02
      0.500000E-01      0.766233E-02
      0.550000E-01      0.672720E-02
      0.600000E-01      0.584273E-02
      0.650000E-01      0.502426E-02
      0.700000E-01      0.428245E-02
      0.750000E-01      0.362341E-02
      0.800000E-01      0.304905E-02
      0.850000E-01      0.255764E-02
      0.900000E-01      0.214454E-02
      0.950000E-01      0.180299E-02
      0.100000          0.152488E-02
      0.105000          0.130149E-02
      0.110000          0.112408E-02
      0.115000          0.984418E-03
      0.120000          0.875108E-03
      0.125000          0.789762E-03
      0.130000          0.723081E-03
      0.135000          0.670810E-03
      0.140000          0.629627E-03
      0.145000          0.596975E-03
      0.150000          0.570898E-03
      0.155000          0.549872E-03
      0.160000          0.532671E-03
      0.165000          0.518262E-03
      0.170000          0.505748E-03
      0.175000          0.494334E-03
      0.180000          0.483327E-03
      0.185000          0.472153E-03
      0.190000          0.460379E-03
      0.195000          0.447726E-03
      0.200000          0.434079E-03
      0.205000          0.419482E-03
      0.210000          0.404117E-03
      0.215000          0.388267E-03
      0.220000          0.372280E-03
      0.225000          0.356522E-03
      0.230000          0.341337E-03
      0.235000          0.327010E-03
      0.240000          0.313749E-03
      0.245000          0.301668E-03
      0.250000          0.290793E-03
      0.255000          0.281072E-03
      0.260000          0.272394E-03
      0.265000          0.264611E-03
      0.270000          0.257564E-03
      0.275000          0.251104E-03
      0.280000          0.245105E-03
      0.285000          0.239478E-03
      0.290000          0.234171E-03
      0.295000          0.229166E-03
      0.300000          0.224474E-03
      0.305000          0.220123E-03
      0.310000          0.216145E-03
      0.315000          0.212572E-03
      0.320000          0.209420E-03
      0.325000          0.206690E-03
      0.330000          0.204364E-03
      0.335000          0.202407E-03
      0.340000          0.200768E-03
      0.345000          0.199389E-03
      0.350000          0.198204E-03
      0.355000          0.197150E-03
      0.360000          0.196167E-03
      0.365000          0.195201E-03
      0.370000          0.194204E-03
      0.375000          0.193133E-03
      0.380000          0.191953E-03
      0.385000          0.190631E-03
      0.390000          0.189135E-03
      0.395000          0.187437E-03
      0.400000          0.185513E-03
      0.405000          0.183338E-03
      0.410000          0.180898E-03
      0.415000          0.178185E-03
      0.420000          0.175201E-03
      0.425000          0.171960E-03
      0.430000          0.168491E-03
      0.435000          0.164833E-03
      0.440000          0.161036E-03
      0.445000          0.157158E-03
      0.450000          0.153260E-03
      0.455000          0.149400E-03
      0.460000          0.145632E-03
      0.465000          0.141998E-03
      0.470000          0.138527E-03
      0.475000          0.135230E-03
      0.480000          0.132104E-03
      0.485000          0.129128E-03
      0.490000          0.126271E-03
      0.495000          0.123492E-03
      0.500000          0.120748E-03
