 I_abs(s)[cm^-1]/c[mg/ml]
       0.00000          0.134748E-01
      0.500000E-02      0.133408E-01
      0.100000E-01      0.129471E-01
      0.150000E-01      0.123182E-01
      0.200000E-01      0.114921E-01
      0.250000E-01      0.105164E-01
      0.300000E-01      0.944416E-02
      0.350000E-01      0.832892E-02
      0.400000E-01      0.722048E-02
      0.450000E-01      0.616144E-02
      0.500000E-01      0.518487E-02
      0.550000E-01      0.431326E-02
      0.600000E-01      0.355872E-02
      0.650000E-01      0.292415E-02
      0.700000E-01      0.240498E-02
      0.750000E-01      0.199133E-02
      0.800000E-01      0.167009E-02
      0.850000E-01      0.142674E-02
      0.900000E-01      0.124677E-02
      0.950000E-01      0.111662E-02
      0.100000          0.102424E-02
      0.105000          0.959311E-03
      0.110000          0.913236E-03
      0.115000          0.879073E-03
      0.120000          0.851400E-03
      0.125000          0.826205E-03
      0.130000          0.800779E-03
      0.135000          0.773602E-03
      0.140000          0.744202E-03
      0.145000          0.712959E-03
      0.150000          0.680862E-03
      0.155000          0.649225E-03
      0.160000          0.619413E-03
      0.165000          0.592581E-03
      0.170000          0.569498E-03
      0.175000          0.550443E-03
      0.180000          0.535198E-03
      0.185000          0.523128E-03
      0.190000          0.513308E-03
      0.195000          0.504687E-03
      0.200000          0.496240E-03
      0.205000          0.487100E-03
      0.210000          0.476640E-03
      0.215000          0.464510E-03
      0.220000          0.450626E-03
      0.225000          0.435133E-03
      0.230000          0.418345E-03
      0.235000          0.400679E-03
      0.240000          0.382594E-03
      0.245000          0.364548E-03
      0.250000          0.346960E-03
      0.255000          0.330191E-03
      0.260000          0.314537E-03
      0.265000          0.300223E-03
      0.270000          0.287406E-03
      0.275000          0.276182E-03
      0.280000          0.266582E-03
      0.285000          0.258578E-03
      0.290000          0.252084E-03
      0.295000          0.246957E-03
      0.300000          0.243000E-03
      0.305000          0.239970E-03
      0.310000          0.237585E-03
      0.315000          0.235542E-03
      0.320000          0.233534E-03
      0.325000          0.231272E-03
      0.330000          0.228509E-03
      0.335000          0.225053E-03
      0.340000          0.220790E-03
      0.345000          0.215685E-03
      0.350000          0.209783E-03
      0.355000          0.203199E-03
      0.360000          0.196098E-03
      0.365000          0.188677E-03
      0.370000          0.181140E-03
      0.375000          0.173676E-03
      0.380000          0.166449E-03
      0.385000          0.159579E-03
      0.390000          0.153147E-03
      0.395000          0.147194E-03
      0.400000          0.141724E-03
      0.405000          0.136717E-03
      0.410000          0.132133E-03
      0.415000          0.127923E-03
      0.420000          0.124031E-03
      0.425000          0.120404E-03
      0.430000          0.116990E-03
      0.435000          0.113747E-03
      0.440000          0.110643E-03
      0.445000          0.107659E-03
      0.450000          0.104794E-03
      0.455000          0.102063E-03
      0.460000          0.994971E-04
      0.465000          0.971370E-04
      0.470000          0.950299E-04
      0.475000          0.932201E-04
      0.480000          0.917405E-04
      0.485000          0.906058E-04
      0.490000          0.898074E-04
      0.495000          0.893118E-04
      0.500000          0.890629E-04
