 I_abs(s)[cm^-1]/c[mg/ml]
       0.00000          0.141561E-01
      0.500000E-02      0.140825E-01
      0.100000E-01      0.138641E-01
      0.150000E-01      0.135075E-01
      0.200000E-01      0.130235E-01
      0.250000E-01      0.124265E-01
      0.300000E-01      0.117338E-01
      0.350000E-01      0.109649E-01
      0.400000E-01      0.101406E-01
      0.450000E-01      0.928231E-02
      0.500000E-01      0.841088E-02
      0.550000E-01      0.754601E-02
      0.600000E-01      0.670553E-02
      0.650000E-01      0.590485E-02
      0.700000E-01      0.515651E-02
      0.750000E-01      0.447000E-02
      0.800000E-01      0.385166E-02
      0.850000E-01      0.330479E-02
      0.900000E-01      0.282983E-02
      0.950000E-01      0.242476E-02
      0.100000          0.208545E-02
      0.105000          0.180621E-02
      0.110000          0.158021E-02
      0.115000          0.140001E-02
      0.120000          0.125799E-02
      0.125000          0.114671E-02
      0.130000          0.105930E-02
      0.135000          0.989613E-03
      0.140000          0.932435E-03
      0.145000          0.883541E-03
      0.150000          0.839700E-03
      0.155000          0.798621E-03
      0.160000          0.758849E-03
      0.165000          0.719632E-03
      0.170000          0.680770E-03
      0.175000          0.642460E-03
      0.180000          0.605146E-03
      0.185000          0.569391E-03
      0.190000          0.535763E-03
      0.195000          0.504755E-03
      0.200000          0.476726E-03
      0.205000          0.451869E-03
      0.210000          0.430204E-03
      0.215000          0.411589E-03
      0.220000          0.395741E-03
      0.225000          0.382273E-03
      0.230000          0.370730E-03
      0.235000          0.360632E-03
      0.240000          0.351507E-03
      0.245000          0.342922E-03
      0.250000          0.334513E-03
      0.255000          0.325992E-03
      0.260000          0.317166E-03
      0.265000          0.307928E-03
      0.270000          0.298259E-03
      0.275000          0.288214E-03
      0.280000          0.277906E-03
      0.285000          0.267492E-03
      0.290000          0.257151E-03
      0.295000          0.247070E-03
      0.300000          0.237428E-03
      0.305000          0.228380E-03
      0.310000          0.220047E-03
      0.315000          0.212512E-03
      0.320000          0.205814E-03
      0.325000          0.199950E-03
      0.330000          0.194878E-03
      0.335000          0.190524E-03
      0.340000          0.186787E-03
      0.345000          0.183553E-03
      0.350000          0.180698E-03
      0.355000          0.178104E-03
      0.360000          0.175662E-03
      0.365000          0.173280E-03
      0.370000          0.170887E-03
      0.375000          0.168434E-03
      0.380000          0.165898E-03
      0.385000          0.163273E-03
      0.390000          0.160573E-03
      0.395000          0.157823E-03
      0.400000          0.155055E-03
      0.405000          0.152304E-03
      0.410000          0.149600E-03
      0.415000          0.146966E-03
      0.420000          0.144413E-03
      0.425000          0.141944E-03
      0.430000          0.139546E-03
      0.435000          0.137201E-03
      0.440000          0.134879E-03
      0.445000          0.132549E-03
      0.450000          0.130180E-03
      0.455000          0.127743E-03
      0.460000          0.125219E-03
      0.465000          0.122599E-03
      0.470000          0.119884E-03
      0.475000          0.117089E-03
      0.480000          0.114241E-03
      0.485000          0.111378E-03
      0.490000          0.108543E-03
      0.495000          0.105784E-03
      0.500000          0.103151E-03
