 I_abs(s)[cm^-1]/c[mg/ml]
       0.00000          0.143685E-01
      0.500000E-02      0.143123E-01
      0.100000E-01      0.141449E-01
      0.150000E-01      0.138700E-01
      0.200000E-01      0.134934E-01
      0.250000E-01      0.130232E-01
      0.300000E-01      0.124692E-01
      0.350000E-01      0.118428E-01
      0.400000E-01      0.111566E-01
      0.450000E-01      0.104239E-01
      0.500000E-01      0.965834E-02
      0.550000E-01      0.887376E-02
      0.600000E-01      0.808349E-02
      0.650000E-01      0.730014E-02
      0.700000E-01      0.653533E-02
      0.750000E-01      0.579938E-02
      0.800000E-01      0.510113E-02
      0.850000E-01      0.444780E-02
      0.900000E-01      0.384495E-02
      0.950000E-01      0.329643E-02
      0.100000          0.280443E-02
      0.105000          0.236961E-02
      0.110000          0.199120E-02
      0.115000          0.166719E-02
      0.120000          0.139456E-02
      0.125000          0.116944E-02
      0.130000          0.987358E-03
      0.135000          0.843458E-03
      0.140000          0.732692E-03
      0.145000          0.650005E-03
      0.150000          0.590497E-03
      0.155000          0.549552E-03
      0.160000          0.522947E-03
      0.165000          0.506918E-03
      0.170000          0.498212E-03
      0.175000          0.494100E-03
      0.180000          0.492376E-03
      0.185000          0.491333E-03
      0.190000          0.489719E-03
      0.195000          0.486691E-03
      0.200000          0.481753E-03
      0.205000          0.474699E-03
      0.210000          0.465544E-03
      0.215000          0.454472E-03
      0.220000          0.441780E-03
      0.225000          0.427830E-03
      0.230000          0.413010E-03
      0.235000          0.397701E-03
      0.240000          0.382259E-03
      0.245000          0.366991E-03
      0.250000          0.352151E-03
      0.255000          0.337935E-03
      0.260000          0.324478E-03
      0.265000          0.311864E-03
      0.270000          0.300128E-03
      0.275000          0.289266E-03
      0.280000          0.279243E-03
      0.285000          0.269998E-03
      0.290000          0.261460E-03
      0.295000          0.253543E-03
      0.300000          0.246164E-03
      0.305000          0.239238E-03
      0.310000          0.232685E-03
      0.315000          0.226434E-03
      0.320000          0.220419E-03
      0.325000          0.214585E-03
      0.330000          0.208888E-03
      0.335000          0.203289E-03
      0.340000          0.197760E-03
      0.345000          0.192281E-03
      0.350000          0.186837E-03
      0.355000          0.181423E-03
      0.360000          0.176038E-03
      0.365000          0.170687E-03
      0.370000          0.165381E-03
      0.375000          0.160134E-03
      0.380000          0.154964E-03
      0.385000          0.149894E-03
      0.390000          0.144948E-03
      0.395000          0.140149E-03
      0.400000          0.135523E-03
      0.405000          0.131095E-03
      0.410000          0.126888E-03
      0.415000          0.122920E-03
      0.420000          0.119208E-03
      0.425000          0.115765E-03
      0.430000          0.112596E-03
      0.435000          0.109704E-03
      0.440000          0.107085E-03
      0.445000          0.104732E-03
      0.450000          0.102633E-03
      0.455000          0.100770E-03
      0.460000          0.991253E-04
      0.465000          0.976783E-04
      0.470000          0.964074E-04
      0.475000          0.952913E-04
      0.480000          0.943097E-04
      0.485000          0.934442E-04
      0.490000          0.926789E-04
      0.495000          0.920004E-04
      0.500000          0.913986E-04
