 I_abs(s)[cm^-1]/c[mg/ml]
       0.00000          0.136974E-01
      0.500000E-02      0.135653E-01
      0.100000E-01      0.131766E-01
      0.150000E-01      0.125540E-01
      0.200000E-01      0.117331E-01
      0.250000E-01      0.107593E-01
      0.300000E-01      0.968400E-02
      0.350000E-01      0.856018E-02
      0.400000E-01      0.743867E-02
      0.450000E-01      0.636436E-02
      0.500000E-01      0.537349E-02
      0.550000E-01      0.449193E-02
      0.600000E-01      0.373459E-02
      0.650000E-01      0.310590E-02
      0.700000E-01      0.260113E-02
      0.750000E-01      0.220848E-02
      0.800000E-01      0.191143E-02
      0.850000E-01      0.169112E-02
      0.900000E-01      0.152860E-02
      0.950000E-01      0.140655E-02
      0.100000          0.131053E-02
      0.105000          0.122956E-02
      0.110000          0.115624E-02
      0.115000          0.108635E-02
      0.120000          0.101820E-02
      0.125000          0.951843E-03
      0.130000          0.888288E-03
      0.135000          0.828810E-03
      0.140000          0.774481E-03
      0.145000          0.725901E-03
      0.150000          0.683131E-03
      0.155000          0.645785E-03
      0.160000          0.613203E-03
      0.165000          0.584658E-03
      0.170000          0.559535E-03
      0.175000          0.537434E-03
      0.180000          0.518204E-03
      0.185000          0.501886E-03
      0.190000          0.488613E-03
      0.195000          0.478482E-03
      0.200000          0.471436E-03
      0.205000          0.467177E-03
      0.210000          0.465148E-03
      0.215000          0.464552E-03
      0.220000          0.464439E-03
      0.225000          0.463813E-03
      0.230000          0.461754E-03
      0.235000          0.457531E-03
      0.240000          0.450678E-03
      0.245000          0.441034E-03
      0.250000          0.428737E-03
      0.255000          0.414179E-03
      0.260000          0.397938E-03
      0.265000          0.380689E-03
      0.270000          0.363127E-03
      0.275000          0.345891E-03
      0.280000          0.329522E-03
      0.285000          0.314436E-03
      0.290000          0.300916E-03
      0.295000          0.289129E-03
      0.300000          0.279140E-03
      0.305000          0.270939E-03
      0.310000          0.264448E-03
      0.315000          0.259541E-03
      0.320000          0.256039E-03
      0.325000          0.253718E-03
      0.330000          0.252306E-03
      0.335000          0.251490E-03
      0.340000          0.250928E-03
      0.345000          0.250270E-03
      0.350000          0.249183E-03
      0.355000          0.247383E-03
      0.360000          0.244658E-03
      0.365000          0.240896E-03
      0.370000          0.236087E-03
      0.375000          0.230322E-03
      0.380000          0.223781E-03
      0.385000          0.216700E-03
      0.390000          0.209342E-03
      0.395000          0.201958E-03
      0.400000          0.194761E-03
      0.405000          0.187905E-03
      0.410000          0.181470E-03
      0.415000          0.175470E-03
      0.420000          0.169863E-03
      0.425000          0.164573E-03
      0.430000          0.159515E-03
      0.435000          0.154617E-03
      0.440000          0.149834E-03
      0.445000          0.145160E-03
      0.450000          0.140627E-03
      0.455000          0.136293E-03
      0.460000          0.132228E-03
      0.465000          0.128500E-03
      0.470000          0.125154E-03
      0.475000          0.122200E-03
      0.480000          0.119612E-03
      0.485000          0.117327E-03
      0.490000          0.115254E-03
      0.495000          0.113290E-03
      0.500000          0.111332E-03
