 I_abs(s)[cm^-1]/c[mg/ml]
       0.00000          0.135207E-01
      0.500000E-02      0.134126E-01
      0.100000E-01      0.130937E-01
      0.150000E-01      0.125795E-01
      0.200000E-01      0.118946E-01
      0.250000E-01      0.110706E-01
      0.300000E-01      0.101442E-01
      0.350000E-01      0.915410E-02
      0.400000E-01      0.813869E-02
      0.450000E-01      0.713365E-02
      0.500000E-01      0.616996E-02
      0.550000E-01      0.527252E-02
      0.600000E-01      0.445942E-02
      0.650000E-01      0.374176E-02
      0.700000E-01      0.312410E-02
      0.750000E-01      0.260534E-02
      0.800000E-01      0.217984E-02
      0.850000E-01      0.183875E-02
      0.900000E-01      0.157129E-02
      0.950000E-01      0.136591E-02
      0.100000          0.121122E-02
      0.105000          0.109670E-02
      0.110000          0.101307E-02
      0.115000          0.952490E-03
      0.120000          0.908553E-03
      0.125000          0.876144E-03
      0.130000          0.851254E-03
      0.135000          0.830774E-03
      0.140000          0.812330E-03
      0.145000          0.794150E-03
      0.150000          0.774983E-03
      0.155000          0.754055E-03
      0.160000          0.731041E-03
      0.165000          0.706024E-03
      0.170000          0.679451E-03
      0.175000          0.652042E-03
      0.180000          0.624690E-03
      0.185000          0.598328E-03
      0.190000          0.573803E-03
      0.195000          0.551764E-03
      0.200000          0.532574E-03
      0.205000          0.516273E-03
      0.210000          0.502582E-03
      0.215000          0.490956E-03
      0.220000          0.480665E-03
      0.225000          0.470904E-03
      0.230000          0.460895E-03
      0.235000          0.449988E-03
      0.240000          0.437727E-03
      0.245000          0.423889E-03
      0.250000          0.408486E-03
      0.255000          0.391734E-03
      0.260000          0.374006E-03
      0.265000          0.355763E-03
      0.270000          0.337493E-03
      0.275000          0.319651E-03
      0.280000          0.302621E-03
      0.285000          0.286686E-03
      0.290000          0.272029E-03
      0.295000          0.258740E-03
      0.300000          0.246835E-03
      0.305000          0.236278E-03
      0.310000          0.227006E-03
      0.315000          0.218944E-03
      0.320000          0.212018E-03
      0.325000          0.206156E-03
      0.330000          0.201285E-03
      0.335000          0.197331E-03
      0.340000          0.194207E-03
      0.345000          0.191814E-03
      0.350000          0.190037E-03
      0.355000          0.188750E-03
      0.360000          0.187820E-03
      0.365000          0.187117E-03
      0.370000          0.186517E-03
      0.375000          0.185913E-03
      0.380000          0.185213E-03
      0.385000          0.184346E-03
      0.390000          0.183256E-03
      0.395000          0.181900E-03
      0.400000          0.180246E-03
      0.405000          0.178271E-03
      0.410000          0.175956E-03
      0.415000          0.173294E-03
      0.420000          0.170284E-03
      0.425000          0.166945E-03
      0.430000          0.163309E-03
      0.435000          0.159429E-03
      0.440000          0.155377E-03
      0.445000          0.151237E-03
      0.450000          0.147100E-03
      0.455000          0.143059E-03
      0.460000          0.139192E-03
      0.465000          0.135558E-03
      0.470000          0.132194E-03
      0.475000          0.129104E-03
      0.480000          0.126269E-03
      0.485000          0.123644E-03
      0.490000          0.121173E-03
      0.495000          0.118795E-03
      0.500000          0.116455E-03
