 I_abs(s)[cm^-1]/c[mg/ml]
       0.00000          0.146941E-01
      0.500000E-02      0.146289E-01
      0.100000E-01      0.144351E-01
      0.150000E-01      0.141180E-01
      0.200000E-01      0.136859E-01
      0.250000E-01      0.131500E-01
      0.300000E-01      0.125242E-01
      0.350000E-01      0.118238E-01
      0.400000E-01      0.110658E-01
      0.450000E-01      0.102673E-01
      0.500000E-01      0.944587E-02
      0.550000E-01      0.861807E-02
      0.600000E-01      0.779947E-02
      0.650000E-01      0.700394E-02
      0.700000E-01      0.624340E-02
      0.750000E-01      0.552754E-02
      0.800000E-01      0.486371E-02
      0.850000E-01      0.425690E-02
      0.900000E-01      0.370984E-02
      0.950000E-01      0.322318E-02
      0.100000          0.279575E-02
      0.105000          0.242485E-02
      0.110000          0.210658E-02
      0.115000          0.183622E-02
      0.120000          0.160849E-02
      0.125000          0.141793E-02
      0.130000          0.125911E-02
      0.135000          0.112686E-02
      0.140000          0.101647E-02
      0.145000          0.923736E-03
      0.150000          0.845053E-03
      0.155000          0.777435E-03
      0.160000          0.718477E-03
      0.165000          0.666305E-03
      0.170000          0.619511E-03
      0.175000          0.577065E-03
      0.180000          0.538236E-03
      0.185000          0.502516E-03
      0.190000          0.469548E-03
      0.195000          0.439074E-03
      0.200000          0.410894E-03
      0.205000          0.384839E-03
      0.210000          0.360755E-03
      0.215000          0.338500E-03
      0.220000          0.317943E-03
      0.225000          0.298972E-03
      0.230000          0.281499E-03
      0.235000          0.265467E-03
      0.240000          0.250847E-03
      0.245000          0.237642E-03
      0.250000          0.225877E-03
      0.255000          0.215589E-03
      0.260000          0.206818E-03
      0.265000          0.199592E-03
      0.270000          0.193915E-03
      0.275000          0.189755E-03
      0.280000          0.187040E-03
      0.285000          0.185650E-03
      0.290000          0.185423E-03
      0.295000          0.186155E-03
      0.300000          0.187612E-03
      0.305000          0.189541E-03
      0.310000          0.191686E-03
      0.315000          0.193798E-03
      0.320000          0.195650E-03
      0.325000          0.197051E-03
      0.330000          0.197854E-03
      0.335000          0.197958E-03
      0.340000          0.197316E-03
      0.345000          0.195927E-03
      0.350000          0.193838E-03
      0.355000          0.191129E-03
      0.360000          0.187909E-03
      0.365000          0.184303E-03
      0.370000          0.180441E-03
      0.375000          0.176450E-03
      0.380000          0.172446E-03
      0.385000          0.168526E-03
      0.390000          0.164762E-03
      0.395000          0.161204E-03
      0.400000          0.157879E-03
      0.405000          0.154791E-03
      0.410000          0.151926E-03
      0.415000          0.149260E-03
      0.420000          0.146757E-03
      0.425000          0.144381E-03
      0.430000          0.142098E-03
      0.435000          0.139878E-03
      0.440000          0.137699E-03
      0.445000          0.135548E-03
      0.450000          0.133420E-03
      0.455000          0.131318E-03
      0.460000          0.129251E-03
      0.465000          0.127232E-03
      0.470000          0.125275E-03
      0.475000          0.123391E-03
      0.480000          0.121590E-03
      0.485000          0.119875E-03
      0.490000          0.118246E-03
      0.495000          0.116693E-03
      0.500000          0.115205E-03
