 I_abs(s)[cm^-1]/c[mg/ml]
       0.00000          0.136974E-01
      0.500000E-02      0.136134E-01
      0.100000E-01      0.133646E-01
      0.150000E-01      0.129605E-01
      0.200000E-01      0.124164E-01
      0.250000E-01      0.117523E-01
      0.300000E-01      0.109919E-01
      0.350000E-01      0.101614E-01
      0.400000E-01      0.928758E-02
      0.450000E-01      0.839702E-02
      0.500000E-01      0.751437E-02
      0.550000E-01      0.666145E-02
      0.600000E-01      0.585639E-02
      0.650000E-01      0.511308E-02
      0.700000E-01      0.444092E-02
      0.750000E-01      0.384497E-02
      0.800000E-01      0.332623E-02
      0.850000E-01      0.288218E-02
      0.900000E-01      0.250757E-02
      0.950000E-01      0.219513E-02
      0.100000          0.193642E-02
      0.105000          0.172258E-02
      0.110000          0.154499E-02
      0.115000          0.139576E-02
      0.120000          0.126816E-02
      0.125000          0.115677E-02
      0.130000          0.105752E-02
      0.135000          0.967680E-03
      0.140000          0.885606E-03
      0.145000          0.810546E-03
      0.150000          0.742353E-03
      0.155000          0.681216E-03
      0.160000          0.627430E-03
      0.165000          0.581200E-03
      0.170000          0.542519E-03
      0.175000          0.511094E-03
      0.180000          0.486344E-03
      0.185000          0.467433E-03
      0.190000          0.453342E-03
      0.195000          0.442960E-03
      0.200000          0.435176E-03
      0.205000          0.428964E-03
      0.210000          0.423453E-03
      0.215000          0.417964E-03
      0.220000          0.412033E-03
      0.225000          0.405401E-03
      0.230000          0.397992E-03
      0.235000          0.389871E-03
      0.240000          0.381200E-03
      0.245000          0.372189E-03
      0.250000          0.363056E-03
      0.255000          0.353992E-03
      0.260000          0.345141E-03
      0.265000          0.336588E-03
      0.270000          0.328356E-03
      0.275000          0.320417E-03
      0.280000          0.312705E-03
      0.285000          0.305128E-03
      0.290000          0.297591E-03
      0.295000          0.290002E-03
      0.300000          0.282291E-03
      0.305000          0.274408E-03
      0.310000          0.266335E-03
      0.315000          0.258076E-03
      0.320000          0.249663E-03
      0.325000          0.241144E-03
      0.330000          0.232585E-03
      0.335000          0.224059E-03
      0.340000          0.215647E-03
      0.345000          0.207432E-03
      0.350000          0.199499E-03
      0.355000          0.191932E-03
      0.360000          0.184811E-03
      0.365000          0.178211E-03
      0.370000          0.172202E-03
      0.375000          0.166841E-03
      0.380000          0.162171E-03
      0.385000          0.158217E-03
      0.390000          0.154984E-03
      0.395000          0.152453E-03
      0.400000          0.150580E-03
      0.405000          0.149297E-03
      0.410000          0.148516E-03
      0.415000          0.148130E-03
      0.420000          0.148020E-03
      0.425000          0.148063E-03
      0.430000          0.148136E-03
      0.435000          0.148125E-03
      0.440000          0.147933E-03
      0.445000          0.147480E-03
      0.450000          0.146709E-03
      0.455000          0.145590E-03
      0.460000          0.144114E-03
      0.465000          0.142294E-03
      0.470000          0.140163E-03
      0.475000          0.137763E-03
      0.480000          0.135150E-03
      0.485000          0.132377E-03
      0.490000          0.129500E-03
      0.495000          0.126567E-03
      0.500000          0.123621E-03
