 I_abs(s)[cm^-1]/c[mg/ml]
       0.00000          0.143685E-01
      0.500000E-02      0.143041E-01
      0.100000E-01      0.141128E-01
      0.150000E-01      0.137998E-01
      0.200000E-01      0.133738E-01
      0.250000E-01      0.128461E-01
      0.300000E-01      0.122308E-01
      0.350000E-01      0.115433E-01
      0.400000E-01      0.108005E-01
      0.450000E-01      0.100196E-01
      0.500000E-01      0.921751E-02
      0.550000E-01      0.841058E-02
      0.600000E-01      0.761369E-02
      0.650000E-01      0.684001E-02
      0.700000E-01      0.610071E-02
      0.750000E-01      0.540473E-02
      0.800000E-01      0.475878E-02
      0.850000E-01      0.416732E-02
      0.900000E-01      0.363272E-02
      0.950000E-01      0.315552E-02
      0.100000          0.273463E-02
      0.105000          0.236766E-02
      0.110000          0.205123E-02
      0.115000          0.178123E-02
      0.120000          0.155312E-02
      0.125000          0.136216E-02
      0.130000          0.120361E-02
      0.135000          0.107287E-02
      0.140000          0.965615E-03
      0.145000          0.877853E-03
      0.150000          0.805992E-03
      0.155000          0.746847E-03
      0.160000          0.697648E-03
      0.165000          0.656024E-03
      0.170000          0.619991E-03
      0.175000          0.587922E-03
      0.180000          0.558520E-03
      0.185000          0.530795E-03
      0.190000          0.504031E-03
      0.195000          0.477754E-03
      0.200000          0.451707E-03
      0.205000          0.425809E-03
      0.210000          0.400127E-03
      0.215000          0.374836E-03
      0.220000          0.350187E-03
      0.225000          0.326470E-03
      0.230000          0.303981E-03
      0.235000          0.282999E-03
      0.240000          0.263758E-03
      0.245000          0.246432E-03
      0.250000          0.231129E-03
      0.255000          0.217881E-03
      0.260000          0.206653E-03
      0.265000          0.197346E-03
      0.270000          0.189812E-03
      0.275000          0.183867E-03
      0.280000          0.179308E-03
      0.285000          0.175922E-03
      0.290000          0.173503E-03
      0.295000          0.171863E-03
      0.300000          0.170834E-03
      0.305000          0.170276E-03
      0.310000          0.170075E-03
      0.315000          0.170146E-03
      0.320000          0.170423E-03
      0.325000          0.170857E-03
      0.330000          0.171414E-03
      0.335000          0.172066E-03
      0.340000          0.172787E-03
      0.345000          0.173553E-03
      0.350000          0.174334E-03
      0.355000          0.175100E-03
      0.360000          0.175813E-03
      0.365000          0.176434E-03
      0.370000          0.176922E-03
      0.375000          0.177234E-03
      0.380000          0.177330E-03
      0.385000          0.177172E-03
      0.390000          0.176726E-03
      0.395000          0.175966E-03
      0.400000          0.174870E-03
      0.405000          0.173425E-03
      0.410000          0.171628E-03
      0.415000          0.169481E-03
      0.420000          0.166996E-03
      0.425000          0.164194E-03
      0.430000          0.161100E-03
      0.435000          0.157748E-03
      0.440000          0.154177E-03
      0.445000          0.150428E-03
      0.450000          0.146547E-03
      0.455000          0.142579E-03
      0.460000          0.138570E-03
      0.465000          0.134562E-03
      0.470000          0.130597E-03
      0.475000          0.126710E-03
      0.480000          0.122933E-03
      0.485000          0.119289E-03
      0.490000          0.115801E-03
      0.495000          0.112482E-03
      0.500000          0.109341E-03
