 I_abs(s)[cm^-1]/c[mg/ml]
       0.00000          0.142818E-01
      0.500000E-02      0.142054E-01
      0.100000E-01      0.139784E-01
      0.150000E-01      0.136076E-01
      0.200000E-01      0.131037E-01
      0.250000E-01      0.124813E-01
      0.300000E-01      0.117580E-01
      0.350000E-01      0.109536E-01
      0.400000E-01      0.100895E-01
      0.450000E-01      0.918763E-02
      0.500000E-01      0.826990E-02
      0.550000E-01      0.735710E-02
      0.600000E-01      0.646832E-02
      0.650000E-01      0.562033E-02
      0.700000E-01      0.482716E-02
      0.750000E-01      0.409974E-02
      0.800000E-01      0.344578E-02
      0.850000E-01      0.286981E-02
      0.900000E-01      0.237327E-02
      0.950000E-01      0.195485E-02
      0.100000          0.161085E-02
      0.105000          0.133561E-02
      0.110000          0.112202E-02
      0.115000          0.962035E-03
      0.120000          0.847119E-03
      0.125000          0.768729E-03
      0.130000          0.718681E-03
      0.135000          0.689461E-03
      0.140000          0.674456E-03
      0.145000          0.668098E-03
      0.150000          0.665927E-03
      0.155000          0.664583E-03
      0.160000          0.661735E-03
      0.165000          0.655967E-03
      0.170000          0.646625E-03
      0.175000          0.633651E-03
      0.180000          0.617415E-03
      0.185000          0.598552E-03
      0.190000          0.577821E-03
      0.195000          0.555987E-03
      0.200000          0.533735E-03
      0.205000          0.511612E-03
      0.210000          0.490001E-03
      0.215000          0.469119E-03
      0.220000          0.449034E-03
      0.225000          0.429699E-03
      0.230000          0.410994E-03
      0.235000          0.392769E-03
      0.240000          0.374884E-03
      0.245000          0.357245E-03
      0.250000          0.339826E-03
      0.255000          0.322685E-03
      0.260000          0.305957E-03
      0.265000          0.289854E-03
      0.270000          0.274637E-03
      0.275000          0.260599E-03
      0.280000          0.248029E-03
      0.285000          0.237189E-03
      0.290000          0.228285E-03
      0.295000          0.221445E-03
      0.300000          0.216707E-03
      0.305000          0.214008E-03
      0.310000          0.213188E-03
      0.315000          0.213996E-03
      0.320000          0.216105E-03
      0.325000          0.219133E-03
      0.330000          0.222667E-03
      0.335000          0.226286E-03
      0.340000          0.229584E-03
      0.345000          0.232198E-03
      0.350000          0.233822E-03
      0.355000          0.234221E-03
      0.360000          0.233240E-03
      0.365000          0.230810E-03
      0.370000          0.226939E-03
      0.375000          0.221713E-03
      0.380000          0.215278E-03
      0.385000          0.207828E-03
      0.390000          0.199592E-03
      0.395000          0.190813E-03
      0.400000          0.181740E-03
      0.405000          0.172604E-03
      0.410000          0.163616E-03
      0.415000          0.154953E-03
      0.420000          0.146756E-03
      0.425000          0.139126E-03
      0.430000          0.132124E-03
      0.435000          0.125776E-03
      0.440000          0.120079E-03
      0.445000          0.115004E-03
      0.450000          0.110509E-03
      0.455000          0.106538E-03
      0.460000          0.103037E-03
      0.465000          0.999511E-04
      0.470000          0.972334E-04
      0.475000          0.948461E-04
      0.480000          0.927614E-04
      0.485000          0.909611E-04
      0.490000          0.894352E-04
      0.495000          0.881788E-04
      0.500000          0.871895E-04
