 I_abs(s)[cm^-1]/c[mg/ml]
       0.00000          0.142975E-01
      0.500000E-02      0.142066E-01
      0.100000E-01      0.139376E-01
      0.150000E-01      0.135020E-01
      0.200000E-01      0.129178E-01
      0.250000E-01      0.122084E-01
      0.300000E-01      0.114013E-01
      0.350000E-01      0.105259E-01
      0.400000E-01      0.961221E-02
      0.450000E-01      0.868880E-02
      0.500000E-01      0.778140E-02
      0.550000E-01      0.691182E-02
      0.600000E-01      0.609714E-02
      0.650000E-01      0.534943E-02
      0.700000E-01      0.467580E-02
      0.750000E-01      0.407876E-02
      0.800000E-01      0.355700E-02
      0.850000E-01      0.310613E-02
      0.900000E-01      0.271969E-02
      0.950000E-01      0.238999E-02
      0.100000          0.210897E-02
      0.105000          0.186882E-02
      0.110000          0.166245E-02
      0.115000          0.148381E-02
      0.120000          0.132798E-02
      0.125000          0.119114E-02
      0.130000          0.107044E-02
      0.135000          0.963832E-03
      0.140000          0.869810E-03
      0.145000          0.787256E-03
      0.150000          0.715262E-03
      0.155000          0.653006E-03
      0.160000          0.599692E-03
      0.165000          0.554513E-03
      0.170000          0.516654E-03
      0.175000          0.485308E-03
      0.180000          0.459689E-03
      0.185000          0.439049E-03
      0.190000          0.422681E-03
      0.195000          0.409912E-03
      0.200000          0.400088E-03
      0.205000          0.392562E-03
      0.210000          0.386685E-03
      0.215000          0.381808E-03
      0.220000          0.377293E-03
      0.225000          0.372544E-03
      0.230000          0.367038E-03
      0.235000          0.360365E-03
      0.240000          0.352266E-03
      0.245000          0.342650E-03
      0.250000          0.331610E-03
      0.255000          0.319405E-03
      0.260000          0.306438E-03
      0.265000          0.293199E-03
      0.270000          0.280218E-03
      0.275000          0.267996E-03
      0.280000          0.256953E-03
      0.285000          0.247381E-03
      0.290000          0.239417E-03
      0.295000          0.233036E-03
      0.300000          0.228059E-03
      0.305000          0.224192E-03
      0.310000          0.221062E-03
      0.315000          0.218272E-03
      0.320000          0.215450E-03
      0.325000          0.212291E-03
      0.330000          0.208589E-03
      0.335000          0.204251E-03
      0.340000          0.199301E-03
      0.345000          0.193860E-03
      0.350000          0.188120E-03
      0.355000          0.182313E-03
      0.360000          0.176674E-03
      0.365000          0.171407E-03
      0.370000          0.166663E-03
      0.375000          0.162521E-03
      0.380000          0.158987E-03
      0.385000          0.156000E-03
      0.390000          0.153445E-03
      0.395000          0.151174E-03
      0.400000          0.149030E-03
      0.405000          0.146869E-03
      0.410000          0.144574E-03
      0.415000          0.142073E-03
      0.420000          0.139337E-03
      0.425000          0.136383E-03
      0.430000          0.133261E-03
      0.435000          0.130049E-03
      0.440000          0.126833E-03
      0.445000          0.123695E-03
      0.450000          0.120703E-03
      0.455000          0.117903E-03
      0.460000          0.115315E-03
      0.465000          0.112931E-03
      0.470000          0.110726E-03
      0.475000          0.108658E-03
      0.480000          0.106680E-03
      0.485000          0.104750E-03
      0.490000          0.102834E-03
      0.495000          0.100914E-03
      0.500000          0.989897E-04
