 I_abs(s)[cm^-1]/c[mg/ml]
       0.00000          0.142739E-01
      0.500000E-02      0.141678E-01
      0.100000E-01      0.138544E-01
      0.150000E-01      0.133473E-01
      0.200000E-01      0.126686E-01
      0.250000E-01      0.118471E-01
      0.300000E-01      0.109164E-01
      0.350000E-01      0.991306E-02
      0.400000E-01      0.887406E-02
      0.450000E-01      0.783502E-02
      0.500000E-01      0.682810E-02
      0.550000E-01      0.588052E-02
      0.600000E-01      0.501343E-02
      0.650000E-01      0.424138E-02
      0.700000E-01      0.357219E-02
      0.750000E-01      0.300736E-02
      0.800000E-01      0.254289E-02
      0.850000E-01      0.217031E-02
      0.900000E-01      0.187799E-02
      0.950000E-01      0.165246E-02
      0.100000          0.147967E-02
      0.105000          0.134615E-02
      0.110000          0.123984E-02
      0.115000          0.115079E-02
      0.120000          0.107141E-02
      0.125000          0.996610E-03
      0.130000          0.923591E-03
      0.135000          0.851486E-03
      0.140000          0.780899E-03
      0.145000          0.713375E-03
      0.150000          0.650882E-03
      0.155000          0.595361E-03
      0.160000          0.548364E-03
      0.165000          0.510817E-03
      0.170000          0.482913E-03
      0.175000          0.464107E-03
      0.180000          0.453222E-03
      0.185000          0.448610E-03
      0.190000          0.448360E-03
      0.195000          0.450508E-03
      0.200000          0.453228E-03
      0.205000          0.454989E-03
      0.210000          0.454653E-03
      0.215000          0.451526E-03
      0.220000          0.445348E-03
      0.225000          0.436246E-03
      0.230000          0.424649E-03
      0.235000          0.411186E-03
      0.240000          0.396580E-03
      0.245000          0.381554E-03
      0.250000          0.366745E-03
      0.255000          0.352653E-03
      0.260000          0.339603E-03
      0.265000          0.327744E-03
      0.270000          0.317063E-03
      0.275000          0.307413E-03
      0.280000          0.298556E-03
      0.285000          0.290206E-03
      0.290000          0.282070E-03
      0.295000          0.273888E-03
      0.300000          0.265456E-03
      0.305000          0.256645E-03
      0.310000          0.247407E-03
      0.315000          0.237777E-03
      0.320000          0.227856E-03
      0.325000          0.217804E-03
      0.330000          0.207819E-03
      0.335000          0.198121E-03
      0.340000          0.188931E-03
      0.345000          0.180460E-03
      0.350000          0.172893E-03
      0.355000          0.166378E-03
      0.360000          0.161022E-03
      0.365000          0.156882E-03
      0.370000          0.153965E-03
      0.375000          0.152225E-03
      0.380000          0.151571E-03
      0.385000          0.151866E-03
      0.390000          0.152932E-03
      0.395000          0.154565E-03
      0.400000          0.156536E-03
      0.405000          0.158608E-03
      0.410000          0.160544E-03
      0.415000          0.162122E-03
      0.420000          0.163143E-03
      0.425000          0.163445E-03
      0.430000          0.162909E-03
      0.435000          0.161465E-03
      0.440000          0.159096E-03
      0.445000          0.155838E-03
      0.450000          0.151774E-03
      0.455000          0.147029E-03
      0.460000          0.141762E-03
      0.465000          0.136151E-03
      0.470000          0.130386E-03
      0.475000          0.124650E-03
      0.480000          0.119113E-03
      0.485000          0.113921E-03
      0.490000          0.109187E-03
      0.495000          0.104985E-03
      0.500000          0.101351E-03
