 I_abs(s)[cm^-1]/c[mg/ml]
       0.00000          0.139998E-01
      0.500000E-02      0.138945E-01
      0.100000E-01      0.135839E-01
      0.150000E-01      0.130830E-01
      0.200000E-01      0.124154E-01
      0.250000E-01      0.116117E-01
      0.300000E-01      0.107069E-01
      0.350000E-01      0.973819E-02
      0.400000E-01      0.874223E-02
      0.450000E-01      0.775295E-02
      0.500000E-01      0.679971E-02
      0.550000E-01      0.590610E-02
      0.600000E-01      0.508920E-02
      0.650000E-01      0.435959E-02
      0.700000E-01      0.372176E-02
      0.750000E-01      0.317504E-02
      0.800000E-01      0.271464E-02
      0.850000E-01      0.233296E-02
      0.900000E-01      0.202067E-02
      0.950000E-01      0.176782E-02
      0.100000          0.156460E-02
      0.105000          0.140197E-02
      0.110000          0.127191E-02
      0.115000          0.116763E-02
      0.120000          0.108347E-02
      0.125000          0.101484E-02
      0.130000          0.958010E-03
      0.135000          0.909955E-03
      0.140000          0.868218E-03
      0.145000          0.830806E-03
      0.150000          0.796124E-03
      0.155000          0.762940E-03
      0.160000          0.730365E-03
      0.165000          0.697827E-03
      0.170000          0.665055E-03
      0.175000          0.632031E-03
      0.180000          0.598941E-03
      0.185000          0.566119E-03
      0.190000          0.533988E-03
      0.195000          0.503000E-03
      0.200000          0.473599E-03
      0.205000          0.446178E-03
      0.210000          0.421061E-03
      0.215000          0.398489E-03
      0.220000          0.378605E-03
      0.225000          0.361453E-03
      0.230000          0.346969E-03
      0.235000          0.334981E-03
      0.240000          0.325212E-03
      0.245000          0.317283E-03
      0.250000          0.310736E-03
      0.255000          0.305064E-03
      0.260000          0.299740E-03
      0.265000          0.294272E-03
      0.270000          0.288243E-03
      0.275000          0.281350E-03
      0.280000          0.273441E-03
      0.285000          0.264517E-03
      0.290000          0.254738E-03
      0.295000          0.244388E-03
      0.300000          0.233841E-03
      0.305000          0.223504E-03
      0.310000          0.213771E-03
      0.315000          0.204967E-03
      0.320000          0.197315E-03
      0.325000          0.190916E-03
      0.330000          0.185743E-03
      0.335000          0.181662E-03
      0.340000          0.178456E-03
      0.345000          0.175863E-03
      0.350000          0.173619E-03
      0.355000          0.171489E-03
      0.360000          0.169293E-03
      0.365000          0.166922E-03
      0.370000          0.164339E-03
      0.375000          0.161568E-03
      0.380000          0.158682E-03
      0.385000          0.155772E-03
      0.390000          0.152936E-03
      0.395000          0.150255E-03
      0.400000          0.147785E-03
      0.405000          0.145551E-03
      0.410000          0.143548E-03
      0.415000          0.141751E-03
      0.420000          0.140120E-03
      0.425000          0.138614E-03
      0.430000          0.137194E-03
      0.435000          0.135832E-03
      0.440000          0.134509E-03
      0.445000          0.133212E-03
      0.450000          0.131934E-03
      0.455000          0.130661E-03
      0.460000          0.129376E-03
      0.465000          0.128048E-03
      0.470000          0.126640E-03
      0.475000          0.125108E-03
      0.480000          0.123409E-03
      0.485000          0.121507E-03
      0.490000          0.119379E-03
      0.495000          0.117025E-03
      0.500000          0.114467E-03
