 I_abs(s)[cm^-1]/c[mg/ml]
       0.00000          0.147340E-01
      0.500000E-02      0.146767E-01
      0.100000E-01      0.145060E-01
      0.150000E-01      0.142258E-01
      0.200000E-01      0.138427E-01
      0.250000E-01      0.133653E-01
      0.300000E-01      0.128041E-01
      0.350000E-01      0.121713E-01
      0.400000E-01      0.114802E-01
      0.450000E-01      0.107449E-01
      0.500000E-01      0.997964E-02
      0.550000E-01      0.919851E-02
      0.600000E-01      0.841502E-02
      0.650000E-01      0.764171E-02
      0.700000E-01      0.688984E-02
      0.750000E-01      0.616917E-02
      0.800000E-01      0.548775E-02
      0.850000E-01      0.485186E-02
      0.900000E-01      0.426598E-02
      0.950000E-01      0.373280E-02
      0.100000          0.325342E-02
      0.105000          0.282743E-02
      0.110000          0.245312E-02
      0.115000          0.212777E-02
      0.120000          0.184782E-02
      0.125000          0.160917E-02
      0.130000          0.140738E-02
      0.135000          0.123788E-02
      0.140000          0.109619E-02
      0.145000          0.978053E-03
      0.150000          0.879534E-03
      0.155000          0.797138E-03
      0.160000          0.727830E-03
      0.165000          0.669059E-03
      0.170000          0.618738E-03
      0.175000          0.575214E-03
      0.180000          0.537211E-03
      0.185000          0.503770E-03
      0.190000          0.474184E-03
      0.195000          0.447932E-03
      0.200000          0.424621E-03
      0.205000          0.403932E-03
      0.210000          0.385587E-03
      0.215000          0.369311E-03
      0.220000          0.354824E-03
      0.225000          0.341829E-03
      0.230000          0.330016E-03
      0.235000          0.319072E-03
      0.240000          0.308692E-03
      0.245000          0.298598E-03
      0.250000          0.288549E-03
      0.255000          0.278358E-03
      0.260000          0.267900E-03
      0.265000          0.257116E-03
      0.270000          0.246015E-03
      0.275000          0.234665E-03
      0.280000          0.223190E-03
      0.285000          0.211751E-03
      0.290000          0.200536E-03
      0.295000          0.189745E-03
      0.300000          0.179569E-03
      0.305000          0.170183E-03
      0.310000          0.161730E-03
      0.315000          0.154313E-03
      0.320000          0.147991E-03
      0.325000          0.142776E-03
      0.330000          0.138636E-03
      0.335000          0.135498E-03
      0.340000          0.133257E-03
      0.345000          0.131781E-03
      0.350000          0.130924E-03
      0.355000          0.130536E-03
      0.360000          0.130467E-03
      0.365000          0.130582E-03
      0.370000          0.130761E-03
      0.375000          0.130906E-03
      0.380000          0.130945E-03
      0.385000          0.130829E-03
      0.390000          0.130534E-03
      0.395000          0.130055E-03
      0.400000          0.129406E-03
      0.405000          0.128610E-03
      0.410000          0.127701E-03
      0.415000          0.126714E-03
      0.420000          0.125683E-03
      0.425000          0.124637E-03
      0.430000          0.123599E-03
      0.435000          0.122584E-03
      0.440000          0.121598E-03
      0.445000          0.120638E-03
      0.450000          0.119694E-03
      0.455000          0.118753E-03
      0.460000          0.117796E-03
      0.465000          0.116805E-03
      0.470000          0.115764E-03
      0.475000          0.114658E-03
      0.480000          0.113479E-03
      0.485000          0.112222E-03
      0.490000          0.110889E-03
      0.495000          0.109488E-03
      0.500000          0.108030E-03
