 I_abs(s)[cm^-1]/c[mg/ml]
       0.00000          0.146861E-01
      0.500000E-02      0.146282E-01
      0.100000E-01      0.144559E-01
      0.150000E-01      0.141732E-01
      0.200000E-01      0.137866E-01
      0.250000E-01      0.133049E-01
      0.300000E-01      0.127388E-01
      0.350000E-01      0.121007E-01
      0.400000E-01      0.114039E-01
      0.450000E-01      0.106626E-01
      0.500000E-01      0.989122E-02
      0.550000E-01      0.910389E-02
      0.600000E-01      0.831416E-02
      0.650000E-01      0.753458E-02
      0.700000E-01      0.677641E-02
      0.750000E-01      0.604937E-02
      0.800000E-01      0.536153E-02
      0.850000E-01      0.471917E-02
      0.900000E-01      0.412680E-02
      0.950000E-01      0.358722E-02
      0.100000          0.310162E-02
      0.105000          0.266975E-02
      0.110000          0.229015E-02
      0.115000          0.196031E-02
      0.120000          0.167695E-02
      0.125000          0.143625E-02
      0.130000          0.123401E-02
      0.135000          0.106590E-02
      0.140000          0.927610E-03
      0.145000          0.814984E-03
      0.150000          0.724122E-03
      0.155000          0.651458E-03
      0.160000          0.593802E-03
      0.165000          0.548355E-03
      0.170000          0.512707E-03
      0.175000          0.484814E-03
      0.180000          0.462965E-03
      0.185000          0.445744E-03
      0.190000          0.431988E-03
      0.195000          0.420743E-03
      0.200000          0.411230E-03
      0.205000          0.402813E-03
      0.210000          0.394973E-03
      0.215000          0.387289E-03
      0.220000          0.379422E-03
      0.225000          0.371114E-03
      0.230000          0.362174E-03
      0.235000          0.352481E-03
      0.240000          0.341982E-03
      0.245000          0.330684E-03
      0.250000          0.318656E-03
      0.255000          0.306020E-03
      0.260000          0.292941E-03
      0.265000          0.279623E-03
      0.270000          0.266290E-03
      0.275000          0.253179E-03
      0.280000          0.240521E-03
      0.285000          0.228536E-03
      0.290000          0.217414E-03
      0.295000          0.207314E-03
      0.300000          0.198347E-03
      0.305000          0.190584E-03
      0.310000          0.184043E-03
      0.315000          0.178700E-03
      0.320000          0.174489E-03
      0.325000          0.171308E-03
      0.330000          0.169028E-03
      0.335000          0.167501E-03
      0.340000          0.166569E-03
      0.345000          0.166072E-03
      0.350000          0.165857E-03
      0.355000          0.165785E-03
      0.360000          0.165731E-03
      0.365000          0.165594E-03
      0.370000          0.165296E-03
      0.375000          0.164779E-03
      0.380000          0.164008E-03
      0.385000          0.162968E-03
      0.390000          0.161657E-03
      0.395000          0.160089E-03
      0.400000          0.158282E-03
      0.405000          0.156264E-03
      0.410000          0.154061E-03
      0.415000          0.151701E-03
      0.420000          0.149209E-03
      0.425000          0.146607E-03
      0.430000          0.143913E-03
      0.435000          0.141143E-03
      0.440000          0.138310E-03
      0.445000          0.135425E-03
      0.450000          0.132499E-03
      0.455000          0.129542E-03
      0.460000          0.126569E-03
      0.465000          0.123595E-03
      0.470000          0.120637E-03
      0.475000          0.117716E-03
      0.480000          0.114853E-03
      0.485000          0.112073E-03
      0.490000          0.109398E-03
      0.495000          0.106853E-03
      0.500000          0.104456E-03
