 I_abs(s)[cm^-1]/c[mg/ml]
       0.00000          0.142975E-01
      0.500000E-02      0.142019E-01
      0.100000E-01      0.139192E-01
      0.150000E-01      0.134610E-01
      0.200000E-01      0.128458E-01
      0.250000E-01      0.120982E-01
      0.300000E-01      0.112468E-01
      0.350000E-01      0.103227E-01
      0.400000E-01      0.935784E-02
      0.450000E-01      0.838321E-02
      0.500000E-01      0.742710E-02
      0.550000E-01      0.651399E-02
      0.600000E-01      0.566357E-02
      0.650000E-01      0.489023E-02
      0.700000E-01      0.420292E-02
      0.750000E-01      0.360541E-02
      0.800000E-01      0.309686E-02
      0.850000E-01      0.267258E-02
      0.900000E-01      0.232501E-02
      0.950000E-01      0.204469E-02
      0.100000          0.182123E-02
      0.105000          0.164411E-02
      0.110000          0.150346E-02
      0.115000          0.139045E-02
      0.120000          0.129770E-02
      0.125000          0.121932E-02
      0.130000          0.115092E-02
      0.135000          0.108942E-02
      0.140000          0.103284E-02
      0.145000          0.980019E-03
      0.150000          0.930335E-03
      0.155000          0.883505E-03
      0.160000          0.839380E-03
      0.165000          0.797826E-03
      0.170000          0.758663E-03
      0.175000          0.721645E-03
      0.180000          0.686482E-03
      0.185000          0.652877E-03
      0.190000          0.620572E-03
      0.195000          0.589380E-03
      0.200000          0.559210E-03
      0.205000          0.530068E-03
      0.210000          0.502040E-03
      0.215000          0.475262E-03
      0.220000          0.449885E-03
      0.225000          0.426038E-03
      0.230000          0.403797E-03
      0.235000          0.383169E-03
      0.240000          0.364086E-03
      0.245000          0.346416E-03
      0.250000          0.329982E-03
      0.255000          0.314588E-03
      0.260000          0.300052E-03
      0.265000          0.286229E-03
      0.270000          0.273030E-03
      0.275000          0.260429E-03
      0.280000          0.248461E-03
      0.285000          0.237208E-03
      0.290000          0.226775E-03
      0.295000          0.217273E-03
      0.300000          0.208783E-03
      0.305000          0.201346E-03
      0.310000          0.194941E-03
      0.315000          0.189487E-03
      0.320000          0.184842E-03
      0.325000          0.180821E-03
      0.330000          0.177213E-03
      0.335000          0.173806E-03
      0.340000          0.170410E-03
      0.345000          0.166876E-03
      0.350000          0.163110E-03
      0.355000          0.159084E-03
      0.360000          0.154827E-03
      0.365000          0.150427E-03
      0.370000          0.146005E-03
      0.375000          0.141709E-03
      0.380000          0.137682E-03
      0.385000          0.134056E-03
      0.390000          0.130928E-03
      0.395000          0.128355E-03
      0.400000          0.126346E-03
      0.405000          0.124869E-03
      0.410000          0.123854E-03
      0.415000          0.123201E-03
      0.420000          0.122798E-03
      0.425000          0.122528E-03
      0.430000          0.122284E-03
      0.435000          0.121976E-03
      0.440000          0.121534E-03
      0.445000          0.120917E-03
      0.450000          0.120104E-03
      0.455000          0.119095E-03
      0.460000          0.117904E-03
      0.465000          0.116554E-03
      0.470000          0.115070E-03
      0.475000          0.113475E-03
      0.480000          0.111786E-03
      0.485000          0.110016E-03
      0.490000          0.108172E-03
      0.495000          0.106256E-03
      0.500000          0.104273E-03
