 I_abs(s)[cm^-1]/c[mg/ml]
       0.00000          0.143290E-01
      0.500000E-02      0.142484E-01
      0.100000E-01      0.140091E-01
      0.150000E-01      0.136186E-01
      0.200000E-01      0.130891E-01
      0.250000E-01      0.124367E-01
      0.300000E-01      0.116808E-01
      0.350000E-01      0.108435E-01
      0.400000E-01      0.994778E-02
      0.450000E-01      0.901751E-02
      0.500000E-01      0.807581E-02
      0.550000E-01      0.714444E-02
      0.600000E-01      0.624295E-02
      0.650000E-01      0.538816E-02
      0.700000E-01      0.459367E-02
      0.750000E-01      0.386969E-02
      0.800000E-01      0.322296E-02
      0.850000E-01      0.265689E-02
      0.900000E-01      0.217182E-02
      0.950000E-01      0.176544E-02
      0.100000          0.143322E-02
      0.105000          0.116896E-02
      0.110000          0.965270E-03
      0.115000          0.814099E-03
      0.120000          0.707181E-03
      0.125000          0.636420E-03
      0.130000          0.594199E-03
      0.135000          0.573606E-03
      0.140000          0.568583E-03
      0.145000          0.573994E-03
      0.150000          0.585634E-03
      0.155000          0.600184E-03
      0.160000          0.615133E-03
      0.165000          0.628671E-03
      0.170000          0.639577E-03
      0.175000          0.647103E-03
      0.180000          0.650867E-03
      0.185000          0.650760E-03
      0.190000          0.646864E-03
      0.195000          0.639395E-03
      0.200000          0.628650E-03
      0.205000          0.614983E-03
      0.210000          0.598775E-03
      0.215000          0.580424E-03
      0.220000          0.560333E-03
      0.225000          0.538906E-03
      0.230000          0.516542E-03
      0.235000          0.493627E-03
      0.240000          0.470528E-03
      0.245000          0.447592E-03
      0.250000          0.425129E-03
      0.255000          0.403415E-03
      0.260000          0.382681E-03
      0.265000          0.363108E-03
      0.270000          0.344831E-03
      0.275000          0.327931E-03
      0.280000          0.312441E-03
      0.285000          0.298353E-03
      0.290000          0.285615E-03
      0.295000          0.274144E-03
      0.300000          0.263835E-03
      0.305000          0.254560E-03
      0.310000          0.246186E-03
      0.315000          0.238573E-03
      0.320000          0.231589E-03
      0.325000          0.225106E-03
      0.330000          0.219014E-03
      0.335000          0.213215E-03
      0.340000          0.207632E-03
      0.345000          0.202205E-03
      0.350000          0.196894E-03
      0.355000          0.191674E-03
      0.360000          0.186537E-03
      0.365000          0.181486E-03
      0.370000          0.176536E-03
      0.375000          0.171704E-03
      0.380000          0.167016E-03
      0.385000          0.162495E-03
      0.390000          0.158163E-03
      0.395000          0.154040E-03
      0.400000          0.150140E-03
      0.405000          0.146473E-03
      0.410000          0.143044E-03
      0.415000          0.139854E-03
      0.420000          0.136900E-03
      0.425000          0.134178E-03
      0.430000          0.131679E-03
      0.435000          0.129400E-03
      0.440000          0.127332E-03
      0.445000          0.125472E-03
      0.450000          0.123816E-03
      0.455000          0.122363E-03
      0.460000          0.121109E-03
      0.465000          0.120053E-03
      0.470000          0.119190E-03
      0.475000          0.118515E-03
      0.480000          0.118018E-03
      0.485000          0.117684E-03
      0.490000          0.117494E-03
      0.495000          0.117424E-03
      0.500000          0.117444E-03
