 I_abs(s)[cm^-1]/c[mg/ml]
       0.00000          0.137979E-01
      0.500000E-02      0.137222E-01
      0.100000E-01      0.134983E-01
      0.150000E-01      0.131349E-01
      0.200000E-01      0.126460E-01
      0.250000E-01      0.120502E-01
      0.300000E-01      0.113688E-01
      0.350000E-01      0.106253E-01
      0.400000E-01      0.984373E-02
      0.450000E-01      0.904709E-02
      0.500000E-01      0.825658E-02
      0.550000E-01      0.749045E-02
      0.600000E-01      0.676341E-02
      0.650000E-01      0.608631E-02
      0.700000E-01      0.546606E-02
      0.750000E-01      0.490590E-02
      0.800000E-01      0.440585E-02
      0.850000E-01      0.396334E-02
      0.900000E-01      0.357392E-02
      0.950000E-01      0.323195E-02
      0.100000          0.293130E-02
      0.105000          0.266591E-02
      0.110000          0.243022E-02
      0.115000          0.221945E-02
      0.120000          0.202971E-02
      0.125000          0.185804E-02
      0.130000          0.170228E-02
      0.135000          0.156092E-02
      0.140000          0.143287E-02
      0.145000          0.131729E-02
      0.150000          0.121341E-02
      0.155000          0.112041E-02
      0.160000          0.103735E-02
      0.165000          0.963169E-03
      0.170000          0.896691E-03
      0.175000          0.836725E-03
      0.180000          0.782120E-03
      0.185000          0.731854E-03
      0.190000          0.685093E-03
      0.195000          0.641231E-03
      0.200000          0.599902E-03
      0.205000          0.560953E-03
      0.210000          0.524408E-03
      0.215000          0.490404E-03
      0.220000          0.459122E-03
      0.225000          0.430731E-03
      0.230000          0.405330E-03
      0.235000          0.382915E-03
      0.240000          0.363364E-03
      0.245000          0.346444E-03
      0.250000          0.331829E-03
      0.255000          0.319133E-03
      0.260000          0.307949E-03
      0.265000          0.297885E-03
      0.270000          0.288593E-03
      0.275000          0.279794E-03
      0.280000          0.271283E-03
      0.285000          0.262933E-03
      0.290000          0.254679E-03
      0.295000          0.246505E-03
      0.300000          0.238424E-03
      0.305000          0.230457E-03
      0.310000          0.222623E-03
      0.315000          0.214927E-03
      0.320000          0.207361E-03
      0.325000          0.199905E-03
      0.330000          0.192537E-03
      0.335000          0.185244E-03
      0.340000          0.178030E-03
      0.345000          0.170925E-03
      0.350000          0.163987E-03
      0.355000          0.157299E-03
      0.360000          0.150966E-03
      0.365000          0.145098E-03
      0.370000          0.139801E-03
      0.375000          0.135161E-03
      0.380000          0.131232E-03
      0.385000          0.128026E-03
      0.390000          0.125515E-03
      0.395000          0.123626E-03
      0.400000          0.122252E-03
      0.405000          0.121263E-03
      0.410000          0.120520E-03
      0.415000          0.119889E-03
      0.420000          0.119255E-03
      0.425000          0.118533E-03
      0.430000          0.117674E-03
      0.435000          0.116668E-03
      0.440000          0.115537E-03
      0.445000          0.114334E-03
      0.450000          0.113126E-03
      0.455000          0.111985E-03
      0.460000          0.110978E-03
      0.465000          0.110152E-03
      0.470000          0.109532E-03
      0.475000          0.109114E-03
      0.480000          0.108869E-03
      0.485000          0.108742E-03
      0.490000          0.108666E-03
      0.495000          0.108565E-03
      0.500000          0.108366E-03
