 I_abs(s)[cm^-1]/c[mg/ml]
       0.00000          0.135130E-01
      0.500000E-02      0.134435E-01
      0.100000E-01      0.132375E-01
      0.150000E-01      0.129025E-01
      0.200000E-01      0.124507E-01
      0.250000E-01      0.118979E-01
      0.300000E-01      0.112629E-01
      0.350000E-01      0.105664E-01
      0.400000E-01      0.982959E-02
      0.450000E-01      0.907350E-02
      0.500000E-01      0.831762E-02
      0.550000E-01      0.757926E-02
      0.600000E-01      0.687290E-02
      0.650000E-01      0.620975E-02
      0.700000E-01      0.559766E-02
      0.750000E-01      0.504114E-02
      0.800000E-01      0.454171E-02
      0.850000E-01      0.409825E-02
      0.900000E-01      0.370760E-02
      0.950000E-01      0.336511E-02
      0.100000          0.306522E-02
      0.105000          0.280202E-02
      0.110000          0.256966E-02
      0.115000          0.236277E-02
      0.120000          0.217661E-02
      0.125000          0.200730E-02
      0.130000          0.185179E-02
      0.135000          0.170780E-02
      0.140000          0.157379E-02
      0.145000          0.144876E-02
      0.150000          0.133211E-02
      0.155000          0.122352E-02
      0.160000          0.112281E-02
      0.165000          0.102983E-02
      0.170000          0.944419E-03
      0.175000          0.866361E-03
      0.180000          0.795355E-03
      0.185000          0.731031E-03
      0.190000          0.672962E-03
      0.195000          0.620684E-03
      0.200000          0.573715E-03
      0.205000          0.531570E-03
      0.210000          0.493775E-03
      0.215000          0.459873E-03
      0.220000          0.429429E-03
      0.225000          0.402030E-03
      0.230000          0.377292E-03
      0.235000          0.354857E-03
      0.240000          0.334402E-03
      0.245000          0.315639E-03
      0.250000          0.298328E-03
      0.255000          0.282275E-03
      0.260000          0.267335E-03
      0.265000          0.253413E-03
      0.270000          0.240458E-03
      0.275000          0.228451E-03
      0.280000          0.217399E-03
      0.285000          0.207315E-03
      0.290000          0.198206E-03
      0.295000          0.190064E-03
      0.300000          0.182854E-03
      0.305000          0.176514E-03
      0.310000          0.170948E-03
      0.315000          0.166039E-03
      0.320000          0.161655E-03
      0.325000          0.157660E-03
      0.330000          0.153926E-03
      0.335000          0.150345E-03
      0.340000          0.146838E-03
      0.345000          0.143360E-03
      0.350000          0.139900E-03
      0.355000          0.136480E-03
      0.360000          0.133144E-03
      0.365000          0.129956E-03
      0.370000          0.126984E-03
      0.375000          0.124290E-03
      0.380000          0.121926E-03
      0.385000          0.119923E-03
      0.390000          0.118291E-03
      0.395000          0.117016E-03
      0.400000          0.116065E-03
      0.405000          0.115390E-03
      0.410000          0.114932E-03
      0.415000          0.114632E-03
      0.420000          0.114432E-03
      0.425000          0.114281E-03
      0.430000          0.114141E-03
      0.435000          0.113982E-03
      0.440000          0.113790E-03
      0.445000          0.113555E-03
      0.450000          0.113280E-03
      0.455000          0.112967E-03
      0.460000          0.112623E-03
      0.465000          0.112254E-03
      0.470000          0.111866E-03
      0.475000          0.111464E-03
      0.480000          0.111050E-03
      0.485000          0.110629E-03
      0.490000          0.110205E-03
      0.495000          0.109785E-03
      0.500000          0.109376E-03
