 I_abs(s)[cm^-1]/c[mg/ml]
       0.00000          0.137360E-01
      0.500000E-02      0.136565E-01
      0.100000E-01      0.134213E-01
      0.150000E-01      0.130402E-01
      0.200000E-01      0.125287E-01
      0.250000E-01      0.119071E-01
      0.300000E-01      0.111991E-01
      0.350000E-01      0.104305E-01
      0.400000E-01      0.962727E-02
      0.450000E-01      0.881434E-02
      0.500000E-01      0.801429E-02
      0.550000E-01      0.724630E-02
      0.600000E-01      0.652540E-02
      0.650000E-01      0.586221E-02
      0.700000E-01      0.526288E-02
      0.750000E-01      0.472945E-02
      0.800000E-01      0.426044E-02
      0.850000E-01      0.385155E-02
      0.900000E-01      0.349655E-02
      0.950000E-01      0.318808E-02
      0.100000          0.291847E-02
      0.105000          0.268037E-02
      0.110000          0.246723E-02
      0.115000          0.227365E-02
      0.120000          0.209546E-02
      0.125000          0.192975E-02
      0.130000          0.177469E-02
      0.135000          0.162936E-02
      0.140000          0.149342E-02
      0.145000          0.136692E-02
      0.150000          0.125001E-02
      0.155000          0.114280E-02
      0.160000          0.104522E-02
      0.165000          0.956986E-03
      0.170000          0.877565E-03
      0.175000          0.806258E-03
      0.180000          0.742247E-03
      0.185000          0.684683E-03
      0.190000          0.632755E-03
      0.195000          0.585749E-03
      0.200000          0.543086E-03
      0.205000          0.504333E-03
      0.210000          0.469186E-03
      0.215000          0.437451E-03
      0.220000          0.408997E-03
      0.225000          0.383723E-03
      0.230000          0.361515E-03
      0.235000          0.342225E-03
      0.240000          0.325647E-03
      0.245000          0.311522E-03
      0.250000          0.299542E-03
      0.255000          0.289364E-03
      0.260000          0.280638E-03
      0.265000          0.273023E-03
      0.270000          0.266212E-03
      0.275000          0.259945E-03
      0.280000          0.254021E-03
      0.285000          0.248297E-03
      0.290000          0.242691E-03
      0.295000          0.237170E-03
      0.300000          0.231740E-03
      0.305000          0.226434E-03
      0.310000          0.221303E-03
      0.315000          0.216399E-03
      0.320000          0.211771E-03
      0.325000          0.207457E-03
      0.330000          0.203483E-03
      0.335000          0.199856E-03
      0.340000          0.196568E-03
      0.345000          0.193597E-03
      0.350000          0.190907E-03
      0.355000          0.188451E-03
      0.360000          0.186177E-03
      0.365000          0.184024E-03
      0.370000          0.181933E-03
      0.375000          0.179844E-03
      0.380000          0.177703E-03
      0.385000          0.175461E-03
      0.390000          0.173082E-03
      0.395000          0.170540E-03
      0.400000          0.167822E-03
      0.405000          0.164932E-03
      0.410000          0.161884E-03
      0.415000          0.158705E-03
      0.420000          0.155430E-03
      0.425000          0.152100E-03
      0.430000          0.148757E-03
      0.435000          0.145443E-03
      0.440000          0.142193E-03
      0.445000          0.139036E-03
      0.450000          0.135990E-03
      0.455000          0.133063E-03
      0.460000          0.130257E-03
      0.465000          0.127563E-03
      0.470000          0.124968E-03
      0.475000          0.122456E-03
      0.480000          0.120011E-03
      0.485000          0.117620E-03
      0.490000          0.115274E-03
      0.495000          0.112969E-03
      0.500000          0.110707E-03
