 I_abs(s)[cm^-1]/c[mg/ml]
       0.00000          0.138366E-01
      0.500000E-02      0.137781E-01
      0.100000E-01      0.136044E-01
      0.150000E-01      0.133198E-01
      0.200000E-01      0.129317E-01
      0.250000E-01      0.124501E-01
      0.300000E-01      0.118867E-01
      0.350000E-01      0.112553E-01
      0.400000E-01      0.105707E-01
      0.450000E-01      0.984794E-02
      0.500000E-01      0.910251E-02
      0.550000E-01      0.834919E-02
      0.600000E-01      0.760184E-02
      0.650000E-01      0.687294E-02
      0.700000E-01      0.617333E-02
      0.750000E-01      0.551193E-02
      0.800000E-01      0.489568E-02
      0.850000E-01      0.432944E-02
      0.900000E-01      0.381613E-02
      0.950000E-01      0.335683E-02
      0.100000          0.295095E-02
      0.105000          0.259655E-02
      0.110000          0.229052E-02
      0.115000          0.202895E-02
      0.120000          0.180735E-02
      0.125000          0.162094E-02
      0.130000          0.146488E-02
      0.135000          0.133445E-02
      0.140000          0.122525E-02
      0.145000          0.113326E-02
      0.150000          0.105495E-02
      0.155000          0.987310E-03
      0.160000          0.927861E-03
      0.165000          0.874613E-03
      0.170000          0.826037E-03
      0.175000          0.781007E-03
      0.180000          0.738736E-03
      0.185000          0.698710E-03
      0.190000          0.660624E-03
      0.195000          0.624328E-03
      0.200000          0.589773E-03
      0.205000          0.556969E-03
      0.210000          0.525956E-03
      0.215000          0.496778E-03
      0.220000          0.469465E-03
      0.225000          0.444025E-03
      0.230000          0.420438E-03
      0.235000          0.398658E-03
      0.240000          0.378612E-03
      0.245000          0.360204E-03
      0.250000          0.343322E-03
      0.255000          0.327839E-03
      0.260000          0.313626E-03
      0.265000          0.300546E-03
      0.270000          0.288470E-03
      0.275000          0.277272E-03
      0.280000          0.266837E-03
      0.285000          0.257062E-03
      0.290000          0.247862E-03
      0.295000          0.239165E-03
      0.300000          0.230916E-03
      0.305000          0.223079E-03
      0.310000          0.215631E-03
      0.315000          0.208566E-03
      0.320000          0.201888E-03
      0.325000          0.195608E-03
      0.330000          0.189746E-03
      0.335000          0.184320E-03
      0.340000          0.179349E-03
      0.345000          0.174845E-03
      0.350000          0.170815E-03
      0.355000          0.167253E-03
      0.360000          0.164143E-03
      0.365000          0.161460E-03
      0.370000          0.159165E-03
      0.375000          0.157210E-03
      0.380000          0.155539E-03
      0.385000          0.154092E-03
      0.390000          0.152804E-03
      0.395000          0.151614E-03
      0.400000          0.150463E-03
      0.405000          0.149298E-03
      0.410000          0.148076E-03
      0.415000          0.146765E-03
      0.420000          0.145343E-03
      0.425000          0.143802E-03
      0.430000          0.142145E-03
      0.435000          0.140383E-03
      0.440000          0.138541E-03
      0.445000          0.136644E-03
      0.450000          0.134726E-03
      0.455000          0.132820E-03
      0.460000          0.130958E-03
      0.465000          0.129169E-03
      0.470000          0.127474E-03
      0.475000          0.125889E-03
      0.480000          0.124422E-03
      0.485000          0.123072E-03
      0.490000          0.121830E-03
      0.495000          0.120679E-03
      0.500000          0.119598E-03
