 I_abs(s)[cm^-1]/c[mg/ml]
       0.00000          0.141326E-01
      0.500000E-02      0.140784E-01
      0.100000E-01      0.139173E-01
      0.150000E-01      0.136528E-01
      0.200000E-01      0.132911E-01
      0.250000E-01      0.128403E-01
      0.300000E-01      0.123105E-01
      0.350000E-01      0.117131E-01
      0.400000E-01      0.110606E-01
      0.450000E-01      0.103663E-01
      0.500000E-01      0.964374E-02
      0.550000E-01      0.890610E-02
      0.600000E-01      0.816614E-02
      0.650000E-01      0.743570E-02
      0.700000E-01      0.672542E-02
      0.750000E-01      0.604451E-02
      0.800000E-01      0.540060E-02
      0.850000E-01      0.479967E-02
      0.900000E-01      0.424599E-02
      0.950000E-01      0.374219E-02
      0.100000          0.328937E-02
      0.105000          0.288720E-02
      0.110000          0.253415E-02
      0.115000          0.222767E-02
      0.120000          0.196443E-02
      0.125000          0.174051E-02
      0.130000          0.155164E-02
      0.135000          0.139341E-02
      0.140000          0.126140E-02
      0.145000          0.115136E-02
      0.150000          0.105936E-02
      0.155000          0.981799E-03
      0.160000          0.915540E-03
      0.165000          0.857895E-03
      0.170000          0.806651E-03
      0.175000          0.760048E-03
      0.180000          0.716744E-03
      0.185000          0.675778E-03
      0.190000          0.636511E-03
      0.195000          0.598576E-03
      0.200000          0.561814E-03
      0.205000          0.526224E-03
      0.210000          0.491914E-03
      0.215000          0.459053E-03
      0.220000          0.427838E-03
      0.225000          0.398463E-03
      0.230000          0.371097E-03
      0.235000          0.345872E-03
      0.240000          0.322870E-03
      0.245000          0.302123E-03
      0.250000          0.283613E-03
      0.255000          0.267277E-03
      0.260000          0.253012E-03
      0.265000          0.240684E-03
      0.270000          0.230138E-03
      0.275000          0.221203E-03
      0.280000          0.213703E-03
      0.285000          0.207463E-03
      0.290000          0.202313E-03
      0.295000          0.198096E-03
      0.300000          0.194664E-03
      0.305000          0.191889E-03
      0.310000          0.189655E-03
      0.315000          0.187862E-03
      0.320000          0.186425E-03
      0.325000          0.185268E-03
      0.330000          0.184328E-03
      0.335000          0.183550E-03
      0.340000          0.182882E-03
      0.345000          0.182280E-03
      0.350000          0.181700E-03
      0.355000          0.181103E-03
      0.360000          0.180450E-03
      0.365000          0.179703E-03
      0.370000          0.178829E-03
      0.375000          0.177794E-03
      0.380000          0.176570E-03
      0.385000          0.175133E-03
      0.390000          0.173463E-03
      0.395000          0.171550E-03
      0.400000          0.169387E-03
      0.405000          0.166978E-03
      0.410000          0.164332E-03
      0.415000          0.161468E-03
      0.420000          0.158410E-03
      0.425000          0.155191E-03
      0.430000          0.151846E-03
      0.435000          0.148417E-03
      0.440000          0.144946E-03
      0.445000          0.141478E-03
      0.450000          0.138056E-03
      0.455000          0.134720E-03
      0.460000          0.131507E-03
      0.465000          0.128450E-03
      0.470000          0.125574E-03
      0.475000          0.122899E-03
      0.480000          0.120438E-03
      0.485000          0.118194E-03
      0.490000          0.116167E-03
      0.495000          0.114347E-03
      0.500000          0.112721E-03
