 I_abs(s)[cm^-1]/c[mg/ml]
       0.00000          0.135590E-01
      0.500000E-02      0.134949E-01
      0.100000E-01      0.133044E-01
      0.150000E-01      0.129934E-01
      0.200000E-01      0.125711E-01
      0.250000E-01      0.120499E-01
      0.300000E-01      0.114447E-01
      0.350000E-01      0.107723E-01
      0.400000E-01      0.100506E-01
      0.450000E-01      0.929780E-02
      0.500000E-01      0.853187E-02
      0.550000E-01      0.776961E-02
      0.600000E-01      0.702623E-02
      0.650000E-01      0.631484E-02
      0.700000E-01      0.564610E-02
      0.750000E-01      0.502806E-02
      0.800000E-01      0.446611E-02
      0.850000E-01      0.396308E-02
      0.900000E-01      0.351941E-02
      0.950000E-01      0.313347E-02
      0.100000          0.280195E-02
      0.105000          0.252022E-02
      0.110000          0.228277E-02
      0.115000          0.208360E-02
      0.120000          0.191658E-02
      0.125000          0.177578E-02
      0.130000          0.165571E-02
      0.135000          0.155151E-02
      0.140000          0.145902E-02
      0.145000          0.137490E-02
      0.150000          0.129658E-02
      0.155000          0.122220E-02
      0.160000          0.115056E-02
      0.165000          0.108097E-02
      0.170000          0.101317E-02
      0.175000          0.947203E-03
      0.180000          0.883301E-03
      0.185000          0.821796E-03
      0.190000          0.763046E-03
      0.195000          0.707380E-03
      0.200000          0.655057E-03
      0.205000          0.606248E-03
      0.210000          0.561030E-03
      0.215000          0.519391E-03
      0.220000          0.481241E-03
      0.225000          0.446424E-03
      0.230000          0.414744E-03
      0.235000          0.385973E-03
      0.240000          0.359871E-03
      0.245000          0.336197E-03
      0.250000          0.314717E-03
      0.255000          0.295212E-03
      0.260000          0.277480E-03
      0.265000          0.261342E-03
      0.270000          0.246637E-03
      0.275000          0.233227E-03
      0.280000          0.220993E-03
      0.285000          0.209837E-03
      0.290000          0.199678E-03
      0.295000          0.190451E-03
      0.300000          0.182106E-03
      0.305000          0.174602E-03
      0.310000          0.167909E-03
      0.315000          0.162001E-03
      0.320000          0.156855E-03
      0.325000          0.152445E-03
      0.330000          0.148739E-03
      0.335000          0.145701E-03
      0.340000          0.143282E-03
      0.345000          0.141425E-03
      0.350000          0.140062E-03
      0.355000          0.139118E-03
      0.360000          0.138508E-03
      0.365000          0.138148E-03
      0.370000          0.137952E-03
      0.375000          0.137838E-03
      0.380000          0.137735E-03
      0.385000          0.137578E-03
      0.390000          0.137320E-03
      0.395000          0.136926E-03
      0.400000          0.136377E-03
      0.405000          0.135670E-03
      0.410000          0.134814E-03
      0.415000          0.133830E-03
      0.420000          0.132743E-03
      0.425000          0.131587E-03
      0.430000          0.130393E-03
      0.435000          0.129193E-03
      0.440000          0.128012E-03
      0.445000          0.126868E-03
      0.450000          0.125770E-03
      0.455000          0.124720E-03
      0.460000          0.123711E-03
      0.465000          0.122729E-03
      0.470000          0.121752E-03
      0.475000          0.120759E-03
      0.480000          0.119723E-03
      0.485000          0.118624E-03
      0.490000          0.117440E-03
      0.495000          0.116158E-03
      0.500000          0.114770E-03
