 I_abs(s)[cm^-1]/c[mg/ml]
       0.00000          0.139530E-01
      0.500000E-02      0.138998E-01
      0.100000E-01      0.137415E-01
      0.150000E-01      0.134819E-01
      0.200000E-01      0.131273E-01
      0.250000E-01      0.126859E-01
      0.300000E-01      0.121680E-01
      0.350000E-01      0.115851E-01
      0.400000E-01      0.109498E-01
      0.450000E-01      0.102752E-01
      0.500000E-01      0.957455E-02
      0.550000E-01      0.886073E-02
      0.600000E-01      0.814591E-02
      0.650000E-01      0.744122E-02
      0.700000E-01      0.675648E-02
      0.750000E-01      0.610003E-02
      0.800000E-01      0.547860E-02
      0.850000E-01      0.489728E-02
      0.900000E-01      0.435959E-02
      0.950000E-01      0.386751E-02
      0.100000          0.342166E-02
      0.105000          0.302150E-02
      0.110000          0.266547E-02
      0.115000          0.235124E-02
      0.120000          0.207593E-02
      0.125000          0.183626E-02
      0.130000          0.162876E-02
      0.135000          0.144992E-02
      0.140000          0.129630E-02
      0.145000          0.116464E-02
      0.150000          0.105190E-02
      0.155000          0.955363E-03
      0.160000          0.872579E-03
      0.165000          0.801423E-03
      0.170000          0.740061E-03
      0.175000          0.686934E-03
      0.180000          0.640732E-03
      0.185000          0.600362E-03
      0.190000          0.564919E-03
      0.195000          0.533657E-03
      0.200000          0.505960E-03
      0.205000          0.481321E-03
      0.210000          0.459318E-03
      0.215000          0.439600E-03
      0.220000          0.421869E-03
      0.225000          0.405870E-03
      0.230000          0.391381E-03
      0.235000          0.378205E-03
      0.240000          0.366163E-03
      0.245000          0.355092E-03
      0.250000          0.344842E-03
      0.255000          0.335272E-03
      0.260000          0.326252E-03
      0.265000          0.317662E-03
      0.270000          0.309393E-03
      0.275000          0.301350E-03
      0.280000          0.293452E-03
      0.285000          0.285636E-03
      0.290000          0.277852E-03
      0.295000          0.270071E-03
      0.300000          0.262280E-03
      0.305000          0.254483E-03
      0.310000          0.246697E-03
      0.315000          0.238953E-03
      0.320000          0.231290E-03
      0.325000          0.223754E-03
      0.330000          0.216393E-03
      0.335000          0.209257E-03
      0.340000          0.202392E-03
      0.345000          0.195838E-03
      0.350000          0.189630E-03
      0.355000          0.183796E-03
      0.360000          0.178354E-03
      0.365000          0.173315E-03
      0.370000          0.168681E-03
      0.375000          0.164449E-03
      0.380000          0.160606E-03
      0.385000          0.157138E-03
      0.390000          0.154023E-03
      0.395000          0.151236E-03
      0.400000          0.148751E-03
      0.405000          0.146540E-03
      0.410000          0.144570E-03
      0.415000          0.142811E-03
      0.420000          0.141231E-03
      0.425000          0.139799E-03
      0.430000          0.138483E-03
      0.435000          0.137256E-03
      0.440000          0.136089E-03
      0.445000          0.134958E-03
      0.450000          0.133841E-03
      0.455000          0.132719E-03
      0.460000          0.131578E-03
      0.465000          0.130406E-03
      0.470000          0.129196E-03
      0.475000          0.127944E-03
      0.480000          0.126651E-03
      0.485000          0.125318E-03
      0.490000          0.123951E-03
      0.495000          0.122554E-03
      0.500000          0.121136E-03
