 I_abs(s)[cm^-1]/c[mg/ml]
       0.00000          0.138831E-01
      0.500000E-02      0.138153E-01
      0.100000E-01      0.136142E-01
      0.150000E-01      0.132860E-01
      0.200000E-01      0.128409E-01
      0.250000E-01      0.122927E-01
      0.300000E-01      0.116574E-01
      0.350000E-01      0.109536E-01
      0.400000E-01      0.102004E-01
      0.450000E-01      0.941752E-02
      0.500000E-01      0.862404E-02
      0.550000E-01      0.783767E-02
      0.600000E-01      0.707418E-02
      0.650000E-01      0.634692E-02
      0.700000E-01      0.566642E-02
      0.750000E-01      0.504034E-02
      0.800000E-01      0.447337E-02
      0.850000E-01      0.396748E-02
      0.900000E-01      0.352214E-02
      0.950000E-01      0.313476E-02
      0.100000          0.280111E-02
      0.105000          0.251579E-02
      0.110000          0.227275E-02
      0.115000          0.206568E-02
      0.120000          0.188843E-02
      0.125000          0.173529E-02
      0.130000          0.160125E-02
      0.135000          0.148211E-02
      0.140000          0.137454E-02
      0.145000          0.127607E-02
      0.150000          0.118499E-02
      0.155000          0.110027E-02
      0.160000          0.102136E-02
      0.165000          0.948073E-03
      0.170000          0.880426E-03
      0.175000          0.818503E-03
      0.180000          0.762352E-03
      0.185000          0.711914E-03
      0.190000          0.666983E-03
      0.195000          0.627189E-03
      0.200000          0.592021E-03
      0.205000          0.560852E-03
      0.210000          0.532994E-03
      0.215000          0.507743E-03
      0.220000          0.484430E-03
      0.225000          0.462466E-03
      0.230000          0.441370E-03
      0.235000          0.420792E-03
      0.240000          0.400516E-03
      0.245000          0.380454E-03
      0.250000          0.360631E-03
      0.255000          0.341161E-03
      0.260000          0.322218E-03
      0.265000          0.304009E-03
      0.270000          0.286745E-03
      0.275000          0.270622E-03
      0.280000          0.255801E-03
      0.285000          0.242398E-03
      0.290000          0.230478E-03
      0.295000          0.220056E-03
      0.300000          0.211103E-03
      0.305000          0.203548E-03
      0.310000          0.197296E-03
      0.315000          0.192227E-03
      0.320000          0.188213E-03
      0.325000          0.185119E-03
      0.330000          0.182812E-03
      0.335000          0.181163E-03
      0.340000          0.180047E-03
      0.345000          0.179349E-03
      0.350000          0.178957E-03
      0.355000          0.178767E-03
      0.360000          0.178682E-03
      0.365000          0.178609E-03
      0.370000          0.178463E-03
      0.375000          0.178170E-03
      0.380000          0.177664E-03
      0.385000          0.176895E-03
      0.390000          0.175824E-03
      0.395000          0.174430E-03
      0.400000          0.172709E-03
      0.405000          0.170670E-03
      0.410000          0.168339E-03
      0.415000          0.165752E-03
      0.420000          0.162951E-03
      0.425000          0.159987E-03
      0.430000          0.156908E-03
      0.435000          0.153760E-03
      0.440000          0.150584E-03
      0.445000          0.147412E-03
      0.450000          0.144266E-03
      0.455000          0.141160E-03
      0.460000          0.138099E-03
      0.465000          0.135082E-03
      0.470000          0.132103E-03
      0.475000          0.129155E-03
      0.480000          0.126234E-03
      0.485000          0.123337E-03
      0.490000          0.120470E-03
      0.495000          0.117643E-03
      0.500000          0.114874E-03
