 I_abs(s)[cm^-1]/c[mg/ml]
       0.00000          0.137515E-01
      0.500000E-02      0.136937E-01
      0.100000E-01      0.135224E-01
      0.150000E-01      0.132425E-01
      0.200000E-01      0.128627E-01
      0.250000E-01      0.123940E-01
      0.300000E-01      0.118499E-01
      0.350000E-01      0.112452E-01
      0.400000E-01      0.105958E-01
      0.450000E-01      0.991751E-02
      0.500000E-01      0.922581E-02
      0.550000E-01      0.853492E-02
      0.600000E-01      0.785751E-02
      0.650000E-01      0.720425E-02
      0.700000E-01      0.658360E-02
      0.750000E-01      0.600177E-02
      0.800000E-01      0.546269E-02
      0.850000E-01      0.496826E-02
      0.900000E-01      0.451852E-02
      0.950000E-01      0.411203E-02
      0.100000          0.374620E-02
      0.105000          0.341762E-02
      0.110000          0.312247E-02
      0.115000          0.285674E-02
      0.120000          0.261656E-02
      0.125000          0.239835E-02
      0.130000          0.219896E-02
      0.135000          0.201572E-02
      0.140000          0.184652E-02
      0.145000          0.168969E-02
      0.150000          0.154403E-02
      0.155000          0.140867E-02
      0.160000          0.128303E-02
      0.165000          0.116671E-02
      0.170000          0.105941E-02
      0.175000          0.960889E-03
      0.180000          0.870905E-03
      0.185000          0.789188E-03
      0.190000          0.715425E-03
      0.195000          0.649253E-03
      0.200000          0.590266E-03
      0.205000          0.538024E-03
      0.210000          0.492063E-03
      0.215000          0.451910E-03
      0.220000          0.417083E-03
      0.225000          0.387109E-03
      0.230000          0.361515E-03
      0.235000          0.339838E-03
      0.240000          0.321618E-03
      0.245000          0.306401E-03
      0.250000          0.293738E-03
      0.255000          0.283186E-03
      0.260000          0.274315E-03
      0.265000          0.266710E-03
      0.270000          0.259982E-03
      0.275000          0.253778E-03
      0.280000          0.247788E-03
      0.285000          0.241756E-03
      0.290000          0.235486E-03
      0.295000          0.228847E-03
      0.300000          0.221772E-03
      0.305000          0.214258E-03
      0.310000          0.206360E-03
      0.315000          0.198178E-03
      0.320000          0.189851E-03
      0.325000          0.181538E-03
      0.330000          0.173408E-03
      0.335000          0.165627E-03
      0.340000          0.158342E-03
      0.345000          0.151676E-03
      0.350000          0.145716E-03
      0.355000          0.140512E-03
      0.360000          0.136076E-03
      0.365000          0.132384E-03
      0.370000          0.129378E-03
      0.375000          0.126974E-03
      0.380000          0.125071E-03
      0.385000          0.123557E-03
      0.390000          0.122318E-03
      0.395000          0.121245E-03
      0.400000          0.120242E-03
      0.405000          0.119227E-03
      0.410000          0.118139E-03
      0.415000          0.116935E-03
      0.420000          0.115594E-03
      0.425000          0.114112E-03
      0.430000          0.112503E-03
      0.435000          0.110791E-03
      0.440000          0.109009E-03
      0.445000          0.107195E-03
      0.450000          0.105389E-03
      0.455000          0.103629E-03
      0.460000          0.101948E-03
      0.465000          0.100376E-03
      0.470000          0.989333E-04
      0.475000          0.976358E-04
      0.480000          0.964913E-04
      0.485000          0.955018E-04
      0.490000          0.946639E-04
      0.495000          0.939699E-04
      0.500000          0.934092E-04
