 I_abs(s)[cm^-1]/c[mg/ml]
       0.00000          0.142346E-01
      0.500000E-02      0.141888E-01
      0.100000E-01      0.140525E-01
      0.150000E-01      0.138285E-01
      0.200000E-01      0.135216E-01
      0.250000E-01      0.131380E-01
      0.300000E-01      0.126856E-01
      0.350000E-01      0.121733E-01
      0.400000E-01      0.116109E-01
      0.450000E-01      0.110086E-01
      0.500000E-01      0.103770E-01
      0.550000E-01      0.972651E-02
      0.600000E-01      0.906718E-02
      0.650000E-01      0.840838E-02
      0.700000E-01      0.775862E-02
      0.750000E-01      0.712541E-02
      0.800000E-01      0.651508E-02
      0.850000E-01      0.593277E-02
      0.900000E-01      0.538241E-02
      0.950000E-01      0.486674E-02
      0.100000          0.438740E-02
      0.105000          0.394503E-02
      0.110000          0.353942E-02
      0.115000          0.316963E-02
      0.120000          0.283415E-02
      0.125000          0.253107E-02
      0.130000          0.225821E-02
      0.135000          0.201323E-02
      0.140000          0.179375E-02
      0.145000          0.159746E-02
      0.150000          0.142214E-02
      0.155000          0.126573E-02
      0.160000          0.112637E-02
      0.165000          0.100238E-02
      0.170000          0.892271E-03
      0.175000          0.794706E-03
      0.180000          0.708515E-03
      0.185000          0.632644E-03
      0.190000          0.566141E-03
      0.195000          0.508129E-03
      0.200000          0.457790E-03
      0.205000          0.414351E-03
      0.210000          0.377075E-03
      0.215000          0.345256E-03
      0.220000          0.318221E-03
      0.225000          0.295333E-03
      0.230000          0.275993E-03
      0.235000          0.259652E-03
      0.240000          0.245813E-03
      0.245000          0.234034E-03
      0.250000          0.223936E-03
      0.255000          0.215198E-03
      0.260000          0.207560E-03
      0.265000          0.200814E-03
      0.270000          0.194802E-03
      0.275000          0.189405E-03
      0.280000          0.184537E-03
      0.285000          0.180137E-03
      0.290000          0.176159E-03
      0.295000          0.172562E-03
      0.300000          0.169313E-03
      0.305000          0.166374E-03
      0.310000          0.163700E-03
      0.315000          0.161245E-03
      0.320000          0.158953E-03
      0.325000          0.156768E-03
      0.330000          0.154630E-03
      0.335000          0.152482E-03
      0.340000          0.150271E-03
      0.345000          0.147954E-03
      0.350000          0.145498E-03
      0.355000          0.142881E-03
      0.360000          0.140097E-03
      0.365000          0.137152E-03
      0.370000          0.134067E-03
      0.375000          0.130871E-03
      0.380000          0.127604E-03
      0.385000          0.124314E-03
      0.390000          0.121048E-03
      0.395000          0.117856E-03
      0.400000          0.114784E-03
      0.405000          0.111873E-03
      0.410000          0.109157E-03
      0.415000          0.106659E-03
      0.420000          0.104395E-03
      0.425000          0.102369E-03
      0.430000          0.100576E-03
      0.435000          0.990049E-04
      0.440000          0.976362E-04
      0.445000          0.964466E-04
      0.450000          0.954102E-04
      0.455000          0.945006E-04
      0.460000          0.936928E-04
      0.465000          0.929651E-04
      0.470000          0.922999E-04
      0.475000          0.916849E-04
      0.480000          0.911130E-04
      0.485000          0.905822E-04
      0.490000          0.900955E-04
      0.495000          0.896588E-04
      0.500000          0.892809E-04
