 I_abs(s)[cm^-1]/c[mg/ml]
       0.00000          0.138443E-01
      0.500000E-02      0.137830E-01
      0.100000E-01      0.136006E-01
      0.150000E-01      0.133023E-01
      0.200000E-01      0.128962E-01
      0.250000E-01      0.123933E-01
      0.300000E-01      0.118070E-01
      0.350000E-01      0.111522E-01
      0.400000E-01      0.104453E-01
      0.450000E-01      0.970285E-02
      0.500000E-01      0.894162E-02
      0.550000E-01      0.817751E-02
      0.600000E-01      0.742526E-02
      0.650000E-01      0.669788E-02
      0.700000E-01      0.600643E-02
      0.750000E-01      0.535967E-02
      0.800000E-01      0.476407E-02
      0.850000E-01      0.422371E-02
      0.900000E-01      0.374047E-02
      0.950000E-01      0.331419E-02
      0.100000          0.294293E-02
      0.105000          0.262332E-02
      0.110000          0.235088E-02
      0.115000          0.212041E-02
      0.120000          0.192629E-02
      0.125000          0.176282E-02
      0.130000          0.162450E-02
      0.135000          0.150623E-02
      0.140000          0.140346E-02
      0.145000          0.131234E-02
      0.150000          0.122973E-02
      0.155000          0.115321E-02
      0.160000          0.108105E-02
      0.165000          0.101212E-02
      0.170000          0.945799E-03
      0.175000          0.881895E-03
      0.180000          0.820495E-03
      0.185000          0.761880E-03
      0.190000          0.706428E-03
      0.195000          0.654533E-03
      0.200000          0.606542E-03
      0.205000          0.562714E-03
      0.210000          0.523187E-03
      0.215000          0.487976E-03
      0.220000          0.456968E-03
      0.225000          0.429942E-03
      0.230000          0.406583E-03
      0.235000          0.386508E-03
      0.240000          0.369292E-03
      0.245000          0.354493E-03
      0.250000          0.341670E-03
      0.255000          0.330405E-03
      0.260000          0.320316E-03
      0.265000          0.311064E-03
      0.270000          0.302365E-03
      0.275000          0.293986E-03
      0.280000          0.285748E-03
      0.285000          0.277523E-03
      0.290000          0.269230E-03
      0.295000          0.260829E-03
      0.300000          0.252317E-03
      0.305000          0.243717E-03
      0.310000          0.235078E-03
      0.315000          0.226466E-03
      0.320000          0.217958E-03
      0.325000          0.209633E-03
      0.330000          0.201575E-03
      0.335000          0.193859E-03
      0.340000          0.186554E-03
      0.345000          0.179715E-03
      0.350000          0.173381E-03
      0.355000          0.167577E-03
      0.360000          0.162308E-03
      0.365000          0.157564E-03
      0.370000          0.153318E-03
      0.375000          0.149531E-03
      0.380000          0.146152E-03
      0.385000          0.143126E-03
      0.390000          0.140393E-03
      0.395000          0.137893E-03
      0.400000          0.135572E-03
      0.405000          0.133380E-03
      0.410000          0.131278E-03
      0.415000          0.129237E-03
      0.420000          0.127238E-03
      0.425000          0.125271E-03
      0.430000          0.123337E-03
      0.435000          0.121443E-03
      0.440000          0.119602E-03
      0.445000          0.117830E-03
      0.450000          0.116140E-03
      0.455000          0.114549E-03
      0.460000          0.113065E-03
      0.465000          0.111694E-03
      0.470000          0.110436E-03
      0.475000          0.109285E-03
      0.480000          0.108228E-03
      0.485000          0.107249E-03
      0.490000          0.106330E-03
      0.495000          0.105449E-03
      0.500000          0.104586E-03
