 I_abs(s)[cm^-1]/c[mg/ml]
       0.00000          0.131933E-01
      0.500000E-02      0.131030E-01
      0.100000E-01      0.128366E-01
      0.150000E-01      0.124071E-01
      0.200000E-01      0.118355E-01
      0.250000E-01      0.111484E-01
      0.300000E-01      0.103765E-01
      0.350000E-01      0.955251E-02
      0.400000E-01      0.870822E-02
      0.450000E-01      0.787309E-02
      0.500000E-01      0.707226E-02
      0.550000E-01      0.632545E-02
      0.600000E-01      0.564632E-02
      0.650000E-01      0.504240E-02
      0.700000E-01      0.451557E-02
      0.750000E-01      0.406288E-02
      0.800000E-01      0.367776E-02
      0.850000E-01      0.335122E-02
      0.900000E-01      0.307315E-02
      0.950000E-01      0.283343E-02
      0.100000          0.262281E-02
      0.105000          0.243356E-02
      0.110000          0.225972E-02
      0.115000          0.209720E-02
      0.120000          0.194359E-02
      0.125000          0.179780E-02
      0.130000          0.165970E-02
      0.135000          0.152968E-02
      0.140000          0.140829E-02
      0.145000          0.129600E-02
      0.150000          0.119299E-02
      0.155000          0.109911E-02
      0.160000          0.101392E-02
      0.165000          0.936724E-03
      0.170000          0.866741E-03
      0.175000          0.803174E-03
      0.180000          0.745314E-03
      0.185000          0.692591E-03
      0.190000          0.644581E-03
      0.195000          0.600987E-03
      0.200000          0.561593E-03
      0.205000          0.526206E-03
      0.210000          0.494611E-03
      0.215000          0.466531E-03
      0.220000          0.441622E-03
      0.225000          0.419475E-03
      0.230000          0.399655E-03
      0.235000          0.381733E-03
      0.240000          0.365327E-03
      0.245000          0.350141E-03
      0.250000          0.335977E-03
      0.255000          0.322738E-03
      0.260000          0.310413E-03
      0.265000          0.299041E-03
      0.270000          0.288679E-03
      0.275000          0.279364E-03
      0.280000          0.271081E-03
      0.285000          0.263751E-03
      0.290000          0.257226E-03
      0.295000          0.251305E-03
      0.300000          0.245760E-03
      0.305000          0.240367E-03
      0.310000          0.234938E-03
      0.315000          0.229350E-03
      0.320000          0.223557E-03
      0.325000          0.217596E-03
      0.330000          0.211571E-03
      0.335000          0.205637E-03
      0.340000          0.199965E-03
      0.345000          0.194716E-03
      0.350000          0.190010E-03
      0.355000          0.185907E-03
      0.360000          0.182401E-03
      0.365000          0.179419E-03
      0.370000          0.176837E-03
      0.375000          0.174503E-03
      0.380000          0.172259E-03
      0.385000          0.169966E-03
      0.390000          0.167526E-03
      0.395000          0.164892E-03
      0.400000          0.162070E-03
      0.405000          0.159114E-03
      0.410000          0.156113E-03
      0.415000          0.153170E-03
      0.420000          0.150385E-03
      0.425000          0.147834E-03
      0.430000          0.145562E-03
      0.435000          0.143571E-03
      0.440000          0.141827E-03
      0.445000          0.140266E-03
      0.450000          0.138805E-03
      0.455000          0.137360E-03
      0.460000          0.135857E-03
      0.465000          0.134244E-03
      0.470000          0.132500E-03
      0.475000          0.130633E-03
      0.480000          0.128676E-03
      0.485000          0.126682E-03
      0.490000          0.124708E-03
      0.495000          0.122808E-03
      0.500000          0.121021E-03
