 I_abs(s)[cm^-1]/c[mg/ml]
       0.00000          0.138288E-01
      0.500000E-02      0.137562E-01
      0.100000E-01      0.135413E-01
      0.150000E-01      0.131924E-01
      0.200000E-01      0.127228E-01
      0.250000E-01      0.121500E-01
      0.300000E-01      0.114944E-01
      0.350000E-01      0.107780E-01
      0.400000E-01      0.100232E-01
      0.450000E-01      0.925177E-02
      0.500000E-01      0.848343E-02
      0.550000E-01      0.773520E-02
      0.600000E-01      0.702084E-02
      0.650000E-01      0.635056E-02
      0.700000E-01      0.573103E-02
      0.750000E-01      0.516568E-02
      0.800000E-01      0.465511E-02
      0.850000E-01      0.419770E-02
      0.900000E-01      0.379020E-02
      0.950000E-01      0.342834E-02
      0.100000          0.310741E-02
      0.105000          0.282267E-02
      0.110000          0.256966E-02
      0.115000          0.234442E-02
      0.120000          0.214354E-02
      0.125000          0.196415E-02
      0.130000          0.180385E-02
      0.135000          0.166056E-02
      0.140000          0.153245E-02
      0.145000          0.141782E-02
      0.150000          0.131504E-02
      0.155000          0.122249E-02
      0.160000          0.113863E-02
      0.165000          0.106197E-02
      0.170000          0.991183E-03
      0.175000          0.925097E-03
      0.180000          0.862795E-03
      0.185000          0.803612E-03
      0.190000          0.747148E-03
      0.195000          0.693243E-03
      0.200000          0.641937E-03
      0.205000          0.593410E-03
      0.210000          0.547915E-03
      0.215000          0.505715E-03
      0.220000          0.467026E-03
      0.225000          0.431970E-03
      0.230000          0.400555E-03
      0.235000          0.372667E-03
      0.240000          0.348078E-03
      0.245000          0.326469E-03
      0.250000          0.307461E-03
      0.255000          0.290650E-03
      0.260000          0.275639E-03
      0.265000          0.262069E-03
      0.270000          0.249632E-03
      0.275000          0.238091E-03
      0.280000          0.227276E-03
      0.285000          0.217081E-03
      0.290000          0.207454E-03
      0.295000          0.198385E-03
      0.300000          0.189885E-03
      0.305000          0.181981E-03
      0.310000          0.174698E-03
      0.315000          0.168053E-03
      0.320000          0.162053E-03
      0.325000          0.156690E-03
      0.330000          0.151943E-03
      0.335000          0.147781E-03
      0.340000          0.144168E-03
      0.345000          0.141064E-03
      0.350000          0.138428E-03
      0.355000          0.136221E-03
      0.360000          0.134404E-03
      0.365000          0.132942E-03
      0.370000          0.131797E-03
      0.375000          0.130933E-03
      0.380000          0.130310E-03
      0.385000          0.129887E-03
      0.390000          0.129620E-03
      0.395000          0.129462E-03
      0.400000          0.129370E-03
      0.405000          0.129299E-03
      0.410000          0.129210E-03
      0.415000          0.129070E-03
      0.420000          0.128853E-03
      0.425000          0.128543E-03
      0.430000          0.128133E-03
      0.435000          0.127623E-03
      0.440000          0.127021E-03
      0.445000          0.126340E-03
      0.450000          0.125596E-03
      0.455000          0.124804E-03
      0.460000          0.123981E-03
      0.465000          0.123139E-03
      0.470000          0.122286E-03
      0.475000          0.121427E-03
      0.480000          0.120561E-03
      0.485000          0.119685E-03
      0.490000          0.118794E-03
      0.495000          0.117880E-03
      0.500000          0.116937E-03
