 I_abs(s)[cm^-1]/c[mg/ml]
       0.00000          0.140076E-01
      0.500000E-02      0.139517E-01
      0.100000E-01      0.137853E-01
      0.150000E-01      0.135127E-01
      0.200000E-01      0.131404E-01
      0.250000E-01      0.126775E-01
      0.300000E-01      0.121348E-01
      0.350000E-01      0.115249E-01
      0.400000E-01      0.108614E-01
      0.450000E-01      0.101584E-01
      0.500000E-01      0.943020E-02
      0.550000E-01      0.869078E-02
      0.600000E-01      0.795330E-02
      0.650000E-01      0.722980E-02
      0.700000E-01      0.653086E-02
      0.750000E-01      0.586541E-02
      0.800000E-01      0.524058E-02
      0.850000E-01      0.466165E-02
      0.900000E-01      0.413209E-02
      0.950000E-01      0.365363E-02
      0.100000          0.322644E-02
      0.105000          0.284932E-02
      0.110000          0.251992E-02
      0.115000          0.223503E-02
      0.120000          0.199078E-02
      0.125000          0.178289E-02
      0.130000          0.160695E-02
      0.135000          0.145852E-02
      0.140000          0.133335E-02
      0.145000          0.122752E-02
      0.150000          0.113744E-02
      0.155000          0.106001E-02
      0.160000          0.992560E-03
      0.165000          0.932884E-03
      0.170000          0.879205E-03
      0.175000          0.830133E-03
      0.180000          0.784620E-03
      0.185000          0.741898E-03
      0.190000          0.701434E-03
      0.195000          0.662872E-03
      0.200000          0.625990E-03
      0.205000          0.590665E-03
      0.210000          0.556834E-03
      0.215000          0.524479E-03
      0.220000          0.493605E-03
      0.225000          0.464226E-03
      0.230000          0.436366E-03
      0.235000          0.410044E-03
      0.240000          0.385279E-03
      0.245000          0.362086E-03
      0.250000          0.340472E-03
      0.255000          0.320441E-03
      0.260000          0.301984E-03
      0.265000          0.285085E-03
      0.270000          0.269716E-03
      0.275000          0.255835E-03
      0.280000          0.243386E-03
      0.285000          0.232299E-03
      0.290000          0.222491E-03
      0.295000          0.213864E-03
      0.300000          0.206310E-03
      0.305000          0.199715E-03
      0.310000          0.193959E-03
      0.315000          0.188921E-03
      0.320000          0.184482E-03
      0.325000          0.180529E-03
      0.330000          0.176956E-03
      0.335000          0.173667E-03
      0.340000          0.170580E-03
      0.345000          0.167624E-03
      0.350000          0.164741E-03
      0.355000          0.161887E-03
      0.360000          0.159030E-03
      0.365000          0.156149E-03
      0.370000          0.153235E-03
      0.375000          0.150288E-03
      0.380000          0.147315E-03
      0.385000          0.144332E-03
      0.390000          0.141361E-03
      0.395000          0.138425E-03
      0.400000          0.135556E-03
      0.405000          0.132784E-03
      0.410000          0.130140E-03
      0.415000          0.127657E-03
      0.420000          0.125365E-03
      0.425000          0.123289E-03
      0.430000          0.121452E-03
      0.435000          0.119869E-03
      0.440000          0.118551E-03
      0.445000          0.117498E-03
      0.450000          0.116705E-03
      0.455000          0.116158E-03
      0.460000          0.115834E-03
      0.465000          0.115705E-03
      0.470000          0.115736E-03
      0.475000          0.115885E-03
      0.480000          0.116111E-03
      0.485000          0.116368E-03
      0.490000          0.116610E-03
      0.495000          0.116794E-03
      0.500000          0.116881E-03
