 I_abs(s)[cm^-1]/c[mg/ml]
       0.00000          0.135360E-01
      0.500000E-02      0.134672E-01
      0.100000E-01      0.132630E-01
      0.150000E-01      0.129302E-01
      0.200000E-01      0.124797E-01
      0.250000E-01      0.119260E-01
      0.300000E-01      0.112866E-01
      0.350000E-01      0.105806E-01
      0.400000E-01      0.982867E-02
      0.450000E-01      0.905131E-02
      0.500000E-01      0.826838E-02
      0.550000E-01      0.749816E-02
      0.600000E-01      0.675666E-02
      0.650000E-01      0.605715E-02
      0.700000E-01      0.540979E-02
      0.750000E-01      0.482148E-02
      0.800000E-01      0.429597E-02
      0.850000E-01      0.383398E-02
      0.900000E-01      0.343365E-02
      0.950000E-01      0.309094E-02
      0.100000          0.280018E-02
      0.105000          0.255465E-02
      0.110000          0.234708E-02
      0.115000          0.217019E-02
      0.120000          0.201713E-02
      0.125000          0.188178E-02
      0.130000          0.175898E-02
      0.135000          0.164472E-02
      0.140000          0.153609E-02
      0.145000          0.143128E-02
      0.150000          0.132941E-02
      0.155000          0.123040E-02
      0.160000          0.113468E-02
      0.165000          0.104307E-02
      0.170000          0.956526E-03
      0.175000          0.875964E-03
      0.180000          0.802143E-03
      0.185000          0.735556E-03
      0.190000          0.676389E-03
      0.195000          0.624506E-03
      0.200000          0.579481E-03
      0.205000          0.540655E-03
      0.210000          0.507200E-03
      0.215000          0.478206E-03
      0.220000          0.452757E-03
      0.225000          0.429997E-03
      0.230000          0.409185E-03
      0.235000          0.389729E-03
      0.240000          0.371207E-03
      0.245000          0.353355E-03
      0.250000          0.336061E-03
      0.255000          0.319325E-03
      0.260000          0.303235E-03
      0.265000          0.287920E-03
      0.270000          0.273520E-03
      0.275000          0.260156E-03
      0.280000          0.247904E-03
      0.285000          0.236791E-03
      0.290000          0.226784E-03
      0.295000          0.217799E-03
      0.300000          0.209712E-03
      0.305000          0.202375E-03
      0.310000          0.195631E-03
      0.315000          0.189336E-03
      0.320000          0.183370E-03
      0.325000          0.177648E-03
      0.330000          0.172125E-03
      0.335000          0.166797E-03
      0.340000          0.161698E-03
      0.345000          0.156886E-03
      0.350000          0.152439E-03
      0.355000          0.148436E-03
      0.360000          0.144951E-03
      0.365000          0.142037E-03
      0.370000          0.139721E-03
      0.375000          0.137997E-03
      0.380000          0.136828E-03
      0.385000          0.136146E-03
      0.390000          0.135858E-03
      0.395000          0.135853E-03
      0.400000          0.136013E-03
      0.405000          0.136220E-03
      0.410000          0.136367E-03
      0.415000          0.136365E-03
      0.420000          0.136149E-03
      0.425000          0.135680E-03
      0.430000          0.134949E-03
      0.435000          0.133971E-03
      0.440000          0.132785E-03
      0.445000          0.131445E-03
      0.450000          0.130018E-03
      0.455000          0.128571E-03
      0.460000          0.127170E-03
      0.465000          0.125871E-03
      0.470000          0.124715E-03
      0.475000          0.123726E-03
      0.480000          0.122910E-03
      0.485000          0.122256E-03
      0.490000          0.121734E-03
      0.495000          0.121304E-03
      0.500000          0.120915E-03
