 I_abs(s)[cm^-1]/c[mg/ml]
       0.00000          0.138676E-01
      0.500000E-02      0.137932E-01
      0.100000E-01      0.135729E-01
      0.150000E-01      0.132156E-01
      0.200000E-01      0.127350E-01
      0.250000E-01      0.121493E-01
      0.300000E-01      0.114795E-01
      0.350000E-01      0.107485E-01
      0.400000E-01      0.997929E-02
      0.450000E-01      0.919403E-02
      0.500000E-01      0.841280E-02
      0.550000E-01      0.765279E-02
      0.600000E-01      0.692773E-02
      0.650000E-01      0.624773E-02
      0.700000E-01      0.561931E-02
      0.750000E-01      0.504574E-02
      0.800000E-01      0.452753E-02
      0.850000E-01      0.406302E-02
      0.900000E-01      0.364907E-02
      0.950000E-01      0.328164E-02
      0.100000          0.295628E-02
      0.105000          0.266859E-02
      0.110000          0.241442E-02
      0.115000          0.219006E-02
      0.120000          0.199224E-02
      0.125000          0.181810E-02
      0.130000          0.166506E-02
      0.135000          0.153078E-02
      0.140000          0.141299E-02
      0.145000          0.130951E-02
      0.150000          0.121818E-02
      0.155000          0.113691E-02
      0.160000          0.106373E-02
      0.165000          0.996882E-03
      0.170000          0.934839E-03
      0.175000          0.876410E-03
      0.180000          0.820744E-03
      0.185000          0.767334E-03
      0.190000          0.715976E-03
      0.195000          0.666716E-03
      0.200000          0.619763E-03
      0.205000          0.575410E-03
      0.210000          0.533954E-03
      0.215000          0.495631E-03
      0.220000          0.460572E-03
      0.225000          0.428790E-03
      0.230000          0.400173E-03
      0.235000          0.374514E-03
      0.240000          0.351540E-03
      0.245000          0.330950E-03
      0.250000          0.312449E-03
      0.255000          0.295777E-03
      0.260000          0.280722E-03
      0.265000          0.267128E-03
      0.270000          0.254887E-03
      0.275000          0.243924E-03
      0.280000          0.234184E-03
      0.285000          0.225611E-03
      0.290000          0.218136E-03
      0.295000          0.211669E-03
      0.300000          0.206100E-03
      0.305000          0.201299E-03
      0.310000          0.197129E-03
      0.315000          0.193456E-03
      0.320000          0.190157E-03
      0.325000          0.187134E-03
      0.330000          0.184310E-03
      0.335000          0.181639E-03
      0.340000          0.179095E-03
      0.345000          0.176670E-03
      0.350000          0.174362E-03
      0.355000          0.172173E-03
      0.360000          0.170096E-03
      0.365000          0.168120E-03
      0.370000          0.166222E-03
      0.375000          0.164370E-03
      0.380000          0.162533E-03
      0.385000          0.160677E-03
      0.390000          0.158777E-03
      0.395000          0.156816E-03
      0.400000          0.154789E-03
      0.405000          0.152702E-03
      0.410000          0.150570E-03
      0.415000          0.148413E-03
      0.420000          0.146255E-03
      0.425000          0.144115E-03
      0.430000          0.142010E-03
      0.435000          0.139949E-03
      0.440000          0.137933E-03
      0.445000          0.135959E-03
      0.450000          0.134020E-03
      0.455000          0.132107E-03
      0.460000          0.130213E-03
      0.465000          0.128332E-03
      0.470000          0.126466E-03
      0.475000          0.124617E-03
      0.480000          0.122791E-03
      0.485000          0.120996E-03
      0.490000          0.119240E-03
      0.495000          0.117529E-03
      0.500000          0.115866E-03
