 I_abs(s)[cm^-1]/c[mg/ml]
       0.00000          0.136974E-01
      0.500000E-02      0.136263E-01
      0.100000E-01      0.134157E-01
      0.150000E-01      0.130740E-01
      0.200000E-01      0.126142E-01
      0.250000E-01      0.120536E-01
      0.300000E-01      0.114121E-01
      0.350000E-01      0.107115E-01
      0.400000E-01      0.997369E-02
      0.450000E-01      0.921994E-02
      0.500000E-01      0.846943E-02
      0.550000E-01      0.773868E-02
      0.600000E-01      0.704095E-02
      0.650000E-01      0.638601E-02
      0.700000E-01      0.578016E-02
      0.750000E-01      0.522654E-02
      0.800000E-01      0.472558E-02
      0.850000E-01      0.427554E-02
      0.900000E-01      0.387314E-02
      0.950000E-01      0.351419E-02
      0.100000          0.319407E-02
      0.105000          0.290817E-02
      0.110000          0.265221E-02
      0.115000          0.242242E-02
      0.120000          0.221558E-02
      0.125000          0.202906E-02
      0.130000          0.186068E-02
      0.135000          0.170868E-02
      0.140000          0.157151E-02
      0.145000          0.144784E-02
      0.150000          0.133637E-02
      0.155000          0.123589E-02
      0.160000          0.114518E-02
      0.165000          0.106307E-02
      0.170000          0.988457E-03
      0.175000          0.920316E-03
      0.180000          0.857749E-03
      0.185000          0.799997E-03
      0.190000          0.746448E-03
      0.195000          0.696634E-03
      0.200000          0.650215E-03
      0.205000          0.606952E-03
      0.210000          0.566678E-03
      0.215000          0.529274E-03
      0.220000          0.494640E-03
      0.225000          0.462676E-03
      0.230000          0.433268E-03
      0.235000          0.406288E-03
      0.240000          0.381584E-03
      0.245000          0.358991E-03
      0.250000          0.338333E-03
      0.255000          0.319431E-03
      0.260000          0.302108E-03
      0.265000          0.286194E-03
      0.270000          0.271531E-03
      0.275000          0.257974E-03
      0.280000          0.245391E-03
      0.285000          0.233669E-03
      0.290000          0.222707E-03
      0.295000          0.212421E-03
      0.300000          0.202744E-03
      0.305000          0.193626E-03
      0.310000          0.185032E-03
      0.315000          0.176944E-03
      0.320000          0.169355E-03
      0.325000          0.162271E-03
      0.330000          0.155703E-03
      0.335000          0.149669E-03
      0.340000          0.144183E-03
      0.345000          0.139257E-03
      0.350000          0.134892E-03
      0.355000          0.131085E-03
      0.360000          0.127816E-03
      0.365000          0.125059E-03
      0.370000          0.122777E-03
      0.375000          0.120924E-03
      0.380000          0.119451E-03
      0.385000          0.118306E-03
      0.390000          0.117439E-03
      0.395000          0.116799E-03
      0.400000          0.116341E-03
      0.405000          0.116027E-03
      0.410000          0.115822E-03
      0.415000          0.115696E-03
      0.420000          0.115624E-03
      0.425000          0.115586E-03
      0.430000          0.115563E-03
      0.435000          0.115540E-03
      0.440000          0.115502E-03
      0.445000          0.115434E-03
      0.450000          0.115325E-03
      0.455000          0.115162E-03
      0.460000          0.114932E-03
      0.465000          0.114626E-03
      0.470000          0.114233E-03
      0.475000          0.113744E-03
      0.480000          0.113153E-03
      0.485000          0.112454E-03
      0.490000          0.111643E-03
      0.495000          0.110722E-03
      0.500000          0.109693E-03
