 I_abs(s)[cm^-1]/c[mg/ml]
       0.00000          0.138521E-01
      0.500000E-02      0.137882E-01
      0.100000E-01      0.135989E-01
      0.150000E-01      0.132906E-01
      0.200000E-01      0.128736E-01
      0.250000E-01      0.123614E-01
      0.300000E-01      0.117704E-01
      0.350000E-01      0.111183E-01
      0.400000E-01      0.104237E-01
      0.450000E-01      0.970501E-02
      0.500000E-01      0.897958E-02
      0.550000E-01      0.826309E-02
      0.600000E-01      0.756890E-02
      0.650000E-01      0.690771E-02
      0.700000E-01      0.628743E-02
      0.750000E-01      0.571315E-02
      0.800000E-01      0.518737E-02
      0.850000E-01      0.471029E-02
      0.900000E-01      0.428026E-02
      0.950000E-01      0.389422E-02
      0.100000          0.354821E-02
      0.105000          0.323780E-02
      0.110000          0.295848E-02
      0.115000          0.270599E-02
      0.120000          0.247654E-02
      0.125000          0.226692E-02
      0.130000          0.207456E-02
      0.135000          0.189749E-02
      0.140000          0.173428E-02
      0.145000          0.158392E-02
      0.150000          0.144567E-02
      0.155000          0.131899E-02
      0.160000          0.120337E-02
      0.165000          0.109831E-02
      0.170000          0.100323E-02
      0.175000          0.917476E-03
      0.180000          0.840307E-03
      0.185000          0.770938E-03
      0.190000          0.708566E-03
      0.195000          0.652410E-03
      0.200000          0.601753E-03
      0.205000          0.555965E-03
      0.210000          0.514519E-03
      0.215000          0.476996E-03
      0.220000          0.443074E-03
      0.225000          0.412510E-03
      0.230000          0.385113E-03
      0.235000          0.360721E-03
      0.240000          0.339177E-03
      0.245000          0.320303E-03
      0.250000          0.303893E-03
      0.255000          0.289704E-03
      0.260000          0.277460E-03
      0.265000          0.266858E-03
      0.270000          0.257587E-03
      0.275000          0.249335E-03
      0.280000          0.241814E-03
      0.285000          0.234767E-03
      0.290000          0.227984E-03
      0.295000          0.221307E-03
      0.300000          0.214631E-03
      0.305000          0.207902E-03
      0.310000          0.201111E-03
      0.315000          0.194285E-03
      0.320000          0.187479E-03
      0.325000          0.180759E-03
      0.330000          0.174200E-03
      0.335000          0.167870E-03
      0.340000          0.161828E-03
      0.345000          0.156119E-03
      0.350000          0.150774E-03
      0.355000          0.145807E-03
      0.360000          0.141218E-03
      0.365000          0.136997E-03
      0.370000          0.133128E-03
      0.375000          0.129588E-03
      0.380000          0.126357E-03
      0.385000          0.123415E-03
      0.390000          0.120744E-03
      0.395000          0.118331E-03
      0.400000          0.116167E-03
      0.405000          0.114246E-03
      0.410000          0.112564E-03
      0.415000          0.111119E-03
      0.420000          0.109906E-03
      0.425000          0.108920E-03
      0.430000          0.108154E-03
      0.435000          0.107595E-03
      0.440000          0.107227E-03
      0.445000          0.107033E-03
      0.450000          0.106988E-03
      0.455000          0.107068E-03
      0.460000          0.107246E-03
      0.465000          0.107495E-03
      0.470000          0.107787E-03
      0.475000          0.108097E-03
      0.480000          0.108402E-03
      0.485000          0.108681E-03
      0.490000          0.108920E-03
      0.495000          0.109105E-03
      0.500000          0.109229E-03
