 I_abs(s)[cm^-1]/c[mg/ml]
       0.00000          0.139764E-01
      0.500000E-02      0.139150E-01
      0.100000E-01      0.137327E-01
      0.150000E-01      0.134354E-01
      0.200000E-01      0.130324E-01
      0.250000E-01      0.125361E-01
      0.300000E-01      0.119614E-01
      0.350000E-01      0.113245E-01
      0.400000E-01      0.106428E-01
      0.450000E-01      0.993340E-02
      0.500000E-01      0.921279E-02
      0.550000E-01      0.849604E-02
      0.600000E-01      0.779629E-02
      0.650000E-01      0.712440E-02
      0.700000E-01      0.648875E-02
      0.750000E-01      0.589523E-02
      0.800000E-01      0.534731E-02
      0.850000E-01      0.484630E-02
      0.900000E-01      0.439168E-02
      0.950000E-01      0.398149E-02
      0.100000          0.361269E-02
      0.105000          0.328162E-02
      0.110000          0.298431E-02
      0.115000          0.271678E-02
      0.120000          0.247529E-02
      0.125000          0.225652E-02
      0.130000          0.205759E-02
      0.135000          0.187614E-02
      0.140000          0.171028E-02
      0.145000          0.155855E-02
      0.150000          0.141979E-02
      0.155000          0.129313E-02
      0.160000          0.117781E-02
      0.165000          0.107318E-02
      0.170000          0.978624E-03
      0.175000          0.893496E-03
      0.180000          0.817136E-03
      0.185000          0.748851E-03
      0.190000          0.687927E-03
      0.195000          0.633642E-03
      0.200000          0.585286E-03
      0.205000          0.542179E-03
      0.210000          0.503679E-03
      0.215000          0.469199E-03
      0.220000          0.438208E-03
      0.225000          0.410229E-03
      0.230000          0.384846E-03
      0.235000          0.361692E-03
      0.240000          0.340450E-03
      0.245000          0.320850E-03
      0.250000          0.302665E-03
      0.255000          0.285711E-03
      0.260000          0.269844E-03
      0.265000          0.254963E-03
      0.270000          0.241002E-03
      0.275000          0.227931E-03
      0.280000          0.215746E-03
      0.285000          0.204466E-03
      0.290000          0.194118E-03
      0.295000          0.184733E-03
      0.300000          0.176333E-03
      0.305000          0.168923E-03
      0.310000          0.162487E-03
      0.315000          0.156981E-03
      0.320000          0.152335E-03
      0.325000          0.148457E-03
      0.330000          0.145232E-03
      0.335000          0.142536E-03
      0.340000          0.140241E-03
      0.345000          0.138225E-03
      0.350000          0.136379E-03
      0.355000          0.134610E-03
      0.360000          0.132853E-03
      0.365000          0.131064E-03
      0.370000          0.129223E-03
      0.375000          0.127333E-03
      0.380000          0.125412E-03
      0.385000          0.123492E-03
      0.390000          0.121608E-03
      0.395000          0.119798E-03
      0.400000          0.118099E-03
      0.405000          0.116538E-03
      0.410000          0.115138E-03
      0.415000          0.113912E-03
      0.420000          0.112869E-03
      0.425000          0.112007E-03
      0.430000          0.111323E-03
      0.435000          0.110810E-03
      0.440000          0.110458E-03
      0.445000          0.110255E-03
      0.450000          0.110191E-03
      0.455000          0.110251E-03
      0.460000          0.110419E-03
      0.465000          0.110675E-03
      0.470000          0.110997E-03
      0.475000          0.111357E-03
      0.480000          0.111725E-03
      0.485000          0.112065E-03
      0.490000          0.112344E-03
      0.495000          0.112523E-03
      0.500000          0.112571E-03
