 I_abs(s)[cm^-1]/c[mg/ml]
       0.00000          0.137052E-01
      0.500000E-02      0.136377E-01
      0.100000E-01      0.134374E-01
      0.150000E-01      0.131112E-01
      0.200000E-01      0.126697E-01
      0.250000E-01      0.121272E-01
      0.300000E-01      0.115005E-01
      0.350000E-01      0.108084E-01
      0.400000E-01      0.100706E-01
      0.450000E-01      0.930649E-02
      0.500000E-01      0.853489E-02
      0.550000E-01      0.777273E-02
      0.600000E-01      0.703477E-02
      0.650000E-01      0.633312E-02
      0.700000E-01      0.567702E-02
      0.750000E-01      0.507281E-02
      0.800000E-01      0.452409E-02
      0.850000E-01      0.403198E-02
      0.900000E-01      0.359549E-02
      0.950000E-01      0.321193E-02
      0.100000          0.287741E-02
      0.105000          0.258724E-02
      0.110000          0.233636E-02
      0.115000          0.211963E-02
      0.120000          0.193212E-02
      0.125000          0.176930E-02
      0.130000          0.162712E-02
      0.135000          0.150211E-02
      0.140000          0.139132E-02
      0.145000          0.129233E-02
      0.150000          0.120316E-02
      0.155000          0.112224E-02
      0.160000          0.104830E-02
      0.165000          0.980328E-03
      0.170000          0.917536E-03
      0.175000          0.859296E-03
      0.180000          0.805122E-03
      0.185000          0.754642E-03
      0.190000          0.707585E-03
      0.195000          0.663754E-03
      0.200000          0.623018E-03
      0.205000          0.585287E-03
      0.210000          0.550492E-03
      0.215000          0.518569E-03
      0.220000          0.489439E-03
      0.225000          0.462992E-03
      0.230000          0.439081E-03
      0.235000          0.417514E-03
      0.240000          0.398061E-03
      0.245000          0.380457E-03
      0.250000          0.364419E-03
      0.255000          0.349660E-03
      0.260000          0.335901E-03
      0.265000          0.322895E-03
      0.270000          0.310430E-03
      0.275000          0.298345E-03
      0.280000          0.286528E-03
      0.285000          0.274922E-03
      0.290000          0.263515E-03
      0.295000          0.252332E-03
      0.300000          0.241430E-03
      0.305000          0.230879E-03
      0.310000          0.220761E-03
      0.315000          0.211149E-03
      0.320000          0.202111E-03
      0.325000          0.193697E-03
      0.330000          0.185940E-03
      0.335000          0.178851E-03
      0.340000          0.172429E-03
      0.345000          0.166652E-03
      0.350000          0.161489E-03
      0.355000          0.156897E-03
      0.360000          0.152830E-03
      0.365000          0.149234E-03
      0.370000          0.146054E-03
      0.375000          0.143236E-03
      0.380000          0.140724E-03
      0.385000          0.138466E-03
      0.390000          0.136410E-03
      0.395000          0.134510E-03
      0.400000          0.132724E-03
      0.405000          0.131014E-03
      0.410000          0.129352E-03
      0.415000          0.127714E-03
      0.420000          0.126088E-03
      0.425000          0.124467E-03
      0.430000          0.122854E-03
      0.435000          0.121256E-03
      0.440000          0.119687E-03
      0.445000          0.118161E-03
      0.450000          0.116695E-03
      0.455000          0.115303E-03
      0.460000          0.113995E-03
      0.465000          0.112776E-03
      0.470000          0.111645E-03
      0.475000          0.110595E-03
      0.480000          0.109613E-03
      0.485000          0.108683E-03
      0.490000          0.107785E-03
      0.495000          0.106900E-03
      0.500000          0.106011E-03
