 I_abs(s)[cm^-1]/c[mg/ml]
       0.00000          0.137437E-01
      0.500000E-02      0.136757E-01
      0.100000E-01      0.134741E-01
      0.150000E-01      0.131461E-01
      0.200000E-01      0.127031E-01
      0.250000E-01      0.121605E-01
      0.300000E-01      0.115359E-01
      0.350000E-01      0.108491E-01
      0.400000E-01      0.101203E-01
      0.450000E-01      0.936949E-02
      0.500000E-01      0.861531E-02
      0.550000E-01      0.787435E-02
      0.600000E-01      0.716059E-02
      0.650000E-01      0.648501E-02
      0.700000E-01      0.585551E-02
      0.750000E-01      0.527696E-02
      0.800000E-01      0.475153E-02
      0.850000E-01      0.427901E-02
      0.900000E-01      0.385736E-02
      0.950000E-01      0.348320E-02
      0.100000          0.315233E-02
      0.105000          0.286014E-02
      0.110000          0.260203E-02
      0.115000          0.237365E-02
      0.120000          0.217109E-02
      0.125000          0.199095E-02
      0.130000          0.183034E-02
      0.135000          0.168682E-02
      0.140000          0.155835E-02
      0.145000          0.144316E-02
      0.150000          0.133967E-02
      0.155000          0.124642E-02
      0.160000          0.116204E-02
      0.165000          0.108522E-02
      0.170000          0.101473E-02
      0.175000          0.949469E-03
      0.180000          0.888471E-03
      0.185000          0.830957E-03
      0.190000          0.776359E-03
      0.195000          0.724322E-03
      0.200000          0.674698E-03
      0.205000          0.627512E-03
      0.210000          0.582919E-03
      0.215000          0.541145E-03
      0.220000          0.502432E-03
      0.225000          0.466986E-03
      0.230000          0.434928E-03
      0.235000          0.406273E-03
      0.240000          0.380911E-03
      0.245000          0.358620E-03
      0.250000          0.339077E-03
      0.255000          0.321896E-03
      0.260000          0.306659E-03
      0.265000          0.292957E-03
      0.270000          0.280420E-03
      0.275000          0.268745E-03
      0.280000          0.257708E-03
      0.285000          0.247172E-03
      0.290000          0.237081E-03
      0.295000          0.227444E-03
      0.300000          0.218315E-03
      0.305000          0.209771E-03
      0.310000          0.201893E-03
      0.315000          0.194742E-03
      0.320000          0.188347E-03
      0.325000          0.182701E-03
      0.330000          0.177755E-03
      0.335000          0.173424E-03
      0.340000          0.169596E-03
      0.345000          0.166144E-03
      0.350000          0.162940E-03
      0.355000          0.159861E-03
      0.360000          0.156806E-03
      0.365000          0.153698E-03
      0.370000          0.150489E-03
      0.375000          0.147160E-03
      0.380000          0.143717E-03
      0.385000          0.140189E-03
      0.390000          0.136617E-03
      0.395000          0.133054E-03
      0.400000          0.129551E-03
      0.405000          0.126161E-03
      0.410000          0.122926E-03
      0.415000          0.119884E-03
      0.420000          0.117059E-03
      0.425000          0.114471E-03
      0.430000          0.112129E-03
      0.435000          0.110037E-03
      0.440000          0.108192E-03
      0.445000          0.106590E-03
      0.450000          0.105223E-03
      0.455000          0.104078E-03
      0.460000          0.103142E-03
      0.465000          0.102398E-03
      0.470000          0.101824E-03
      0.475000          0.101397E-03
      0.480000          0.101086E-03
      0.485000          0.100863E-03
      0.490000          0.100692E-03
      0.495000          0.100541E-03
      0.500000          0.100377E-03
