 I_abs(s)[cm^-1]/c[mg/ml]
       0.00000          0.138056E-01
      0.500000E-02      0.137406E-01
      0.100000E-01      0.135476E-01
      0.150000E-01      0.132332E-01
      0.200000E-01      0.128075E-01
      0.250000E-01      0.122842E-01
      0.300000E-01      0.116793E-01
      0.350000E-01      0.110109E-01
      0.400000E-01      0.102975E-01
      0.450000E-01      0.955792E-02
      0.500000E-01      0.880976E-02
      0.550000E-01      0.806921E-02
      0.600000E-01      0.735025E-02
      0.650000E-01      0.666434E-02
      0.700000E-01      0.602022E-02
      0.750000E-01      0.542387E-02
      0.800000E-01      0.487871E-02
      0.850000E-01      0.438586E-02
      0.900000E-01      0.394450E-02
      0.950000E-01      0.355229E-02
      0.100000          0.320584E-02
      0.105000          0.290110E-02
      0.110000          0.263372E-02
      0.115000          0.239937E-02
      0.120000          0.219393E-02
      0.125000          0.201364E-02
      0.130000          0.185515E-02
      0.135000          0.171554E-02
      0.140000          0.159228E-02
      0.145000          0.148313E-02
      0.150000          0.138613E-02
      0.155000          0.129946E-02
      0.160000          0.122146E-02
      0.165000          0.115057E-02
      0.170000          0.108529E-02
      0.175000          0.102430E-02
      0.180000          0.966372E-03
      0.185000          0.910507E-03
      0.190000          0.855915E-03
      0.195000          0.802064E-03
      0.200000          0.748687E-03
      0.205000          0.695775E-03
      0.210000          0.643553E-03
      0.215000          0.592430E-03
      0.220000          0.542949E-03
      0.225000          0.495714E-03
      0.230000          0.451329E-03
      0.235000          0.410332E-03
      0.240000          0.373152E-03
      0.245000          0.340066E-03
      0.250000          0.311182E-03
      0.255000          0.286442E-03
      0.260000          0.265630E-03
      0.265000          0.248400E-03
      0.270000          0.234314E-03
      0.275000          0.222878E-03
      0.280000          0.213579E-03
      0.285000          0.205924E-03
      0.290000          0.199465E-03
      0.295000          0.193820E-03
      0.300000          0.188681E-03
      0.305000          0.183819E-03
      0.310000          0.179077E-03
      0.315000          0.174362E-03
      0.320000          0.169628E-03
      0.325000          0.164868E-03
      0.330000          0.160100E-03
      0.335000          0.155351E-03
      0.340000          0.150659E-03
      0.345000          0.146060E-03
      0.350000          0.141591E-03
      0.355000          0.137289E-03
      0.360000          0.133189E-03
      0.365000          0.129330E-03
      0.370000          0.125751E-03
      0.375000          0.122491E-03
      0.380000          0.119588E-03
      0.385000          0.117076E-03
      0.390000          0.114978E-03
      0.395000          0.113308E-03
      0.400000          0.112062E-03
      0.405000          0.111217E-03
      0.410000          0.110736E-03
      0.415000          0.110563E-03
      0.420000          0.110627E-03
      0.425000          0.110851E-03
      0.430000          0.111153E-03
      0.435000          0.111452E-03
      0.440000          0.111678E-03
      0.445000          0.111770E-03
      0.450000          0.111685E-03
      0.455000          0.111396E-03
      0.460000          0.110893E-03
      0.465000          0.110182E-03
      0.470000          0.109282E-03
      0.475000          0.108220E-03
      0.480000          0.107026E-03
      0.485000          0.105736E-03
      0.490000          0.104380E-03
      0.495000          0.102988E-03
      0.500000          0.101582E-03
