 I_abs(s)[cm^-1]/c[mg/ml]
       0.00000          0.136897E-01
      0.500000E-02      0.136254E-01
      0.100000E-01      0.134347E-01
      0.150000E-01      0.131243E-01
      0.200000E-01      0.127053E-01
      0.250000E-01      0.121920E-01
      0.300000E-01      0.116011E-01
      0.350000E-01      0.109512E-01
      0.400000E-01      0.102614E-01
      0.450000E-01      0.955043E-02
      0.500000E-01      0.883581E-02
      0.550000E-01      0.813301E-02
      0.600000E-01      0.745502E-02
      0.650000E-01      0.681196E-02
      0.700000E-01      0.621101E-02
      0.750000E-01      0.565653E-02
      0.800000E-01      0.515024E-02
      0.850000E-01      0.469169E-02
      0.900000E-01      0.427871E-02
      0.950000E-01      0.390789E-02
      0.100000          0.357509E-02
      0.105000          0.327587E-02
      0.110000          0.300584E-02
      0.115000          0.276094E-02
      0.120000          0.253762E-02
      0.125000          0.233289E-02
      0.130000          0.214437E-02
      0.135000          0.197022E-02
      0.140000          0.180903E-02
      0.145000          0.165977E-02
      0.150000          0.152163E-02
      0.155000          0.139397E-02
      0.160000          0.127623E-02
      0.165000          0.116790E-02
      0.170000          0.106847E-02
      0.175000          0.977430E-03
      0.180000          0.894300E-03
      0.185000          0.818608E-03
      0.190000          0.749910E-03
      0.195000          0.687796E-03
      0.200000          0.631883E-03
      0.205000          0.581813E-03
      0.210000          0.537233E-03
      0.215000          0.497783E-03
      0.220000          0.463081E-03
      0.225000          0.432713E-03
      0.230000          0.406231E-03
      0.235000          0.383154E-03
      0.240000          0.362982E-03
      0.245000          0.345213E-03
      0.250000          0.329362E-03
      0.255000          0.314987E-03
      0.260000          0.301703E-03
      0.265000          0.289201E-03
      0.270000          0.277255E-03
      0.275000          0.265723E-03
      0.280000          0.254541E-03
      0.285000          0.243711E-03
      0.290000          0.233286E-03
      0.295000          0.223346E-03
      0.300000          0.213985E-03
      0.305000          0.205290E-03
      0.310000          0.197330E-03
      0.315000          0.190147E-03
      0.320000          0.183746E-03
      0.325000          0.178104E-03
      0.330000          0.173168E-03
      0.335000          0.168860E-03
      0.340000          0.165090E-03
      0.345000          0.161760E-03
      0.350000          0.158772E-03
      0.355000          0.156032E-03
      0.360000          0.153459E-03
      0.365000          0.150982E-03
      0.370000          0.148542E-03
      0.375000          0.146095E-03
      0.380000          0.143609E-03
      0.385000          0.141062E-03
      0.390000          0.138442E-03
      0.395000          0.135747E-03
      0.400000          0.132986E-03
      0.405000          0.130174E-03
      0.410000          0.127334E-03
      0.415000          0.124497E-03
      0.420000          0.121699E-03
      0.425000          0.118978E-03
      0.430000          0.116373E-03
      0.435000          0.113921E-03
      0.440000          0.111652E-03
      0.445000          0.109589E-03
      0.450000          0.107743E-03
      0.455000          0.106113E-03
      0.460000          0.104689E-03
      0.465000          0.103447E-03
      0.470000          0.102358E-03
      0.475000          0.101384E-03
      0.480000          0.100490E-03
      0.485000          0.996386E-04
      0.490000          0.988004E-04
      0.495000          0.979529E-04
      0.500000          0.970826E-04
