 I_abs(s)[cm^-1]/c[mg/ml]
       0.00000          0.137979E-01
      0.500000E-02      0.137223E-01
      0.100000E-01      0.134986E-01
      0.150000E-01      0.131351E-01
      0.200000E-01      0.126453E-01
      0.250000E-01      0.120470E-01
      0.300000E-01      0.113609E-01
      0.350000E-01      0.106100E-01
      0.400000E-01      0.981776E-02
      0.450000E-01      0.900702E-02
      0.500000E-01      0.819908E-02
      0.550000E-01      0.741266E-02
      0.600000E-01      0.666323E-02
      0.650000E-01      0.596266E-02
      0.700000E-01      0.531907E-02
      0.750000E-01      0.473699E-02
      0.800000E-01      0.421773E-02
      0.850000E-01      0.375984E-02
      0.900000E-01      0.335975E-02
      0.950000E-01      0.301240E-02
      0.100000          0.271185E-02
      0.105000          0.245185E-02
      0.110000          0.222631E-02
      0.115000          0.202958E-02
      0.120000          0.185675E-02
      0.125000          0.170367E-02
      0.130000          0.156703E-02
      0.135000          0.144423E-02
      0.140000          0.133332E-02
      0.145000          0.123285E-02
      0.150000          0.114169E-02
      0.155000          0.105899E-02
      0.160000          0.984011E-03
      0.165000          0.916099E-03
      0.170000          0.854628E-03
      0.175000          0.798993E-03
      0.180000          0.748612E-03
      0.185000          0.702933E-03
      0.190000          0.661453E-03
      0.195000          0.623728E-03
      0.200000          0.589378E-03
      0.205000          0.558084E-03
      0.210000          0.529581E-03
      0.215000          0.503642E-03
      0.220000          0.480065E-03
      0.225000          0.458656E-03
      0.230000          0.439217E-03
      0.235000          0.421542E-03
      0.240000          0.405413E-03
      0.245000          0.390603E-03
      0.250000          0.376888E-03
      0.255000          0.364048E-03
      0.260000          0.351886E-03
      0.265000          0.340233E-03
      0.270000          0.328952E-03
      0.275000          0.317945E-03
      0.280000          0.307152E-03
      0.285000          0.296548E-03
      0.290000          0.286135E-03
      0.295000          0.275938E-03
      0.300000          0.265998E-03
      0.305000          0.256362E-03
      0.310000          0.247077E-03
      0.315000          0.238189E-03
      0.320000          0.229735E-03
      0.325000          0.221742E-03
      0.330000          0.214228E-03
      0.335000          0.207200E-03
      0.340000          0.200656E-03
      0.345000          0.194583E-03
      0.350000          0.188961E-03
      0.355000          0.183763E-03
      0.360000          0.178953E-03
      0.365000          0.174494E-03
      0.370000          0.170341E-03
      0.375000          0.166449E-03
      0.380000          0.162771E-03
      0.385000          0.159263E-03
      0.390000          0.155882E-03
      0.395000          0.152592E-03
      0.400000          0.149362E-03
      0.405000          0.146170E-03
      0.410000          0.143002E-03
      0.415000          0.139853E-03
      0.420000          0.136723E-03
      0.425000          0.133623E-03
      0.430000          0.130567E-03
      0.435000          0.127572E-03
      0.440000          0.124660E-03
      0.445000          0.121850E-03
      0.450000          0.119161E-03
      0.455000          0.116611E-03
      0.460000          0.114212E-03
      0.465000          0.111974E-03
      0.470000          0.109904E-03
      0.475000          0.108000E-03
      0.480000          0.106262E-03
      0.485000          0.104682E-03
      0.490000          0.103249E-03
      0.495000          0.101951E-03
      0.500000          0.100771E-03
