 I_abs(s)[cm^-1]/c[mg/ml]
       0.00000          0.143054E-01
      0.500000E-02      0.142413E-01
      0.100000E-01      0.140509E-01
      0.150000E-01      0.137395E-01
      0.200000E-01      0.133159E-01
      0.250000E-01      0.127918E-01
      0.300000E-01      0.121811E-01
      0.350000E-01      0.114997E-01
      0.400000E-01      0.107645E-01
      0.450000E-01      0.999314E-02
      0.500000E-01      0.920262E-02
      0.550000E-01      0.840932E-02
      0.600000E-01      0.762819E-02
      0.650000E-01      0.687235E-02
      0.700000E-01      0.615278E-02
      0.750000E-01      0.547817E-02
      0.800000E-01      0.485480E-02
      0.850000E-01      0.428665E-02
      0.900000E-01      0.377553E-02
      0.950000E-01      0.332134E-02
      0.100000          0.292233E-02
      0.105000          0.257548E-02
      0.110000          0.227681E-02
      0.115000          0.202171E-02
      0.120000          0.180526E-02
      0.125000          0.162248E-02
      0.130000          0.146854E-02
      0.135000          0.133894E-02
      0.140000          0.122958E-02
      0.145000          0.113688E-02
      0.150000          0.105772E-02
      0.155000          0.989511E-03
      0.160000          0.930078E-03
      0.165000          0.877666E-03
      0.170000          0.830858E-03
      0.175000          0.788520E-03
      0.180000          0.749750E-03
      0.185000          0.713831E-03
      0.190000          0.680195E-03
      0.195000          0.648397E-03
      0.200000          0.618097E-03
      0.205000          0.589040E-03
      0.210000          0.561050E-03
      0.215000          0.534023E-03
      0.220000          0.507912E-03
      0.225000          0.482721E-03
      0.230000          0.458493E-03
      0.235000          0.435295E-03
      0.240000          0.413206E-03
      0.245000          0.392305E-03
      0.250000          0.372655E-03
      0.255000          0.354297E-03
      0.260000          0.337244E-03
      0.265000          0.321474E-03
      0.270000          0.306934E-03
      0.275000          0.293545E-03
      0.280000          0.281205E-03
      0.285000          0.269800E-03
      0.290000          0.259212E-03
      0.295000          0.249328E-03
      0.300000          0.240048E-03
      0.305000          0.231287E-03
      0.310000          0.222984E-03
      0.315000          0.215096E-03
      0.320000          0.207601E-03
      0.325000          0.200494E-03
      0.330000          0.193777E-03
      0.335000          0.187460E-03
      0.340000          0.181553E-03
      0.345000          0.176060E-03
      0.350000          0.170976E-03
      0.355000          0.166287E-03
      0.360000          0.161966E-03
      0.365000          0.157979E-03
      0.370000          0.154283E-03
      0.375000          0.150831E-03
      0.380000          0.147579E-03
      0.385000          0.144482E-03
      0.390000          0.141508E-03
      0.395000          0.138631E-03
      0.400000          0.135838E-03
      0.405000          0.133128E-03
      0.410000          0.130513E-03
      0.415000          0.128010E-03
      0.420000          0.125647E-03
      0.425000          0.123453E-03
      0.430000          0.121457E-03
      0.435000          0.119684E-03
      0.440000          0.118154E-03
      0.445000          0.116875E-03
      0.450000          0.115848E-03
      0.455000          0.115058E-03
      0.460000          0.114482E-03
      0.465000          0.114085E-03
      0.470000          0.113827E-03
      0.475000          0.113657E-03
      0.480000          0.113525E-03
      0.485000          0.113379E-03
      0.490000          0.113170E-03
      0.495000          0.112854E-03
      0.500000          0.112396E-03
