 I_abs(s)[cm^-1]/c[mg/ml]
       0.00000          0.141718E-01
      0.500000E-02      0.141118E-01
      0.100000E-01      0.139335E-01
      0.150000E-01      0.136416E-01
      0.200000E-01      0.132435E-01
      0.250000E-01      0.127494E-01
      0.300000E-01      0.121716E-01
      0.350000E-01      0.115241E-01
      0.400000E-01      0.108220E-01
      0.450000E-01      0.100810E-01
      0.500000E-01      0.931677E-02
      0.550000E-01      0.854446E-02
      0.600000E-01      0.777823E-02
      0.650000E-01      0.703081E-02
      0.700000E-01      0.631322E-02
      0.750000E-01      0.563452E-02
      0.800000E-01      0.500169E-02
      0.850000E-01      0.441967E-02
      0.900000E-01      0.389134E-02
      0.950000E-01      0.341777E-02
      0.100000          0.299833E-02
      0.105000          0.263103E-02
      0.110000          0.231276E-02
      0.115000          0.203959E-02
      0.120000          0.180707E-02
      0.125000          0.161046E-02
      0.130000          0.144501E-02
      0.135000          0.130609E-02
      0.140000          0.118941E-02
      0.145000          0.109107E-02
      0.150000          0.100765E-02
      0.155000          0.936218E-03
      0.160000          0.874357E-03
      0.165000          0.820100E-03
      0.170000          0.771898E-03
      0.175000          0.728560E-03
      0.180000          0.689191E-03
      0.185000          0.653127E-03
      0.190000          0.619884E-03
      0.195000          0.589105E-03
      0.200000          0.560523E-03
      0.205000          0.533932E-03
      0.210000          0.509159E-03
      0.215000          0.486059E-03
      0.220000          0.464501E-03
      0.225000          0.444363E-03
      0.230000          0.425537E-03
      0.235000          0.407922E-03
      0.240000          0.391428E-03
      0.245000          0.375976E-03
      0.250000          0.361494E-03
      0.255000          0.347918E-03
      0.260000          0.335188E-03
      0.265000          0.323247E-03
      0.270000          0.312038E-03
      0.275000          0.301503E-03
      0.280000          0.291584E-03
      0.285000          0.282220E-03
      0.290000          0.273349E-03
      0.295000          0.264914E-03
      0.300000          0.256860E-03
      0.305000          0.249138E-03
      0.310000          0.241710E-03
      0.315000          0.234544E-03
      0.320000          0.227622E-03
      0.325000          0.220935E-03
      0.330000          0.214484E-03
      0.335000          0.208278E-03
      0.340000          0.202328E-03
      0.345000          0.196652E-03
      0.350000          0.191262E-03
      0.355000          0.186170E-03
      0.360000          0.181382E-03
      0.365000          0.176896E-03
      0.370000          0.172704E-03
      0.375000          0.168788E-03
      0.380000          0.165124E-03
      0.385000          0.161685E-03
      0.390000          0.158437E-03
      0.395000          0.155345E-03
      0.400000          0.152376E-03
      0.405000          0.149499E-03
      0.410000          0.146685E-03
      0.415000          0.143914E-03
      0.420000          0.141168E-03
      0.425000          0.138437E-03
      0.430000          0.135717E-03
      0.435000          0.133009E-03
      0.440000          0.130319E-03
      0.445000          0.127655E-03
      0.450000          0.125030E-03
      0.455000          0.122457E-03
      0.460000          0.119950E-03
      0.465000          0.117525E-03
      0.470000          0.115195E-03
      0.475000          0.112973E-03
      0.480000          0.110872E-03
      0.485000          0.108903E-03
      0.490000          0.107076E-03
      0.495000          0.105398E-03
      0.500000          0.103876E-03
