 I_abs(s)[cm^-1]/c[mg/ml]
       0.00000          0.139998E-01
      0.500000E-02      0.139394E-01
      0.100000E-01      0.137599E-01
      0.150000E-01      0.134658E-01
      0.200000E-01      0.130649E-01
      0.250000E-01      0.125673E-01
      0.300000E-01      0.119855E-01
      0.350000E-01      0.113336E-01
      0.400000E-01      0.106271E-01
      0.450000E-01      0.988194E-02
      0.500000E-01      0.911429E-02
      0.550000E-01      0.833980E-02
      0.600000E-01      0.757318E-02
      0.650000E-01      0.682772E-02
      0.700000E-01      0.611497E-02
      0.750000E-01      0.544443E-02
      0.800000E-01      0.482346E-02
      0.850000E-01      0.425716E-02
      0.900000E-01      0.374842E-02
      0.950000E-01      0.329810E-02
      0.100000          0.290515E-02
      0.105000          0.256694E-02
      0.110000          0.227952E-02
      0.115000          0.203800E-02
      0.120000          0.183684E-02
      0.125000          0.167018E-02
      0.130000          0.153218E-02
      0.135000          0.141721E-02
      0.140000          0.132013E-02
      0.145000          0.123640E-02
      0.150000          0.116218E-02
      0.155000          0.109444E-02
      0.160000          0.103086E-02
      0.165000          0.969889E-03
      0.170000          0.910582E-03
      0.175000          0.852551E-03
      0.180000          0.795826E-03
      0.185000          0.740735E-03
      0.190000          0.687789E-03
      0.195000          0.637566E-03
      0.200000          0.590626E-03
      0.205000          0.547433E-03
      0.210000          0.508309E-03
      0.215000          0.473404E-03
      0.220000          0.442688E-03
      0.225000          0.415965E-03
      0.230000          0.392894E-03
      0.235000          0.373027E-03
      0.240000          0.355847E-03
      0.245000          0.340814E-03
      0.250000          0.327402E-03
      0.255000          0.315132E-03
      0.260000          0.303602E-03
      0.265000          0.292503E-03
      0.270000          0.281627E-03
      0.275000          0.270866E-03
      0.280000          0.260203E-03
      0.285000          0.249697E-03
      0.290000          0.239462E-03
      0.295000          0.229649E-03
      0.300000          0.220417E-03
      0.305000          0.211921E-03
      0.310000          0.204286E-03
      0.315000          0.197599E-03
      0.320000          0.191900E-03
      0.325000          0.187178E-03
      0.330000          0.183371E-03
      0.335000          0.180377E-03
      0.340000          0.178057E-03
      0.345000          0.176250E-03
      0.350000          0.174785E-03
      0.355000          0.173493E-03
      0.360000          0.172218E-03
      0.365000          0.170828E-03
      0.370000          0.169219E-03
      0.375000          0.167323E-03
      0.380000          0.165108E-03
      0.385000          0.162577E-03
      0.390000          0.159762E-03
      0.395000          0.156720E-03
      0.400000          0.153528E-03
      0.405000          0.150272E-03
      0.410000          0.147041E-03
      0.415000          0.143919E-03
      0.420000          0.140981E-03
      0.425000          0.138283E-03
      0.430000          0.135867E-03
      0.435000          0.133751E-03
      0.440000          0.131936E-03
      0.445000          0.130401E-03
      0.450000          0.129112E-03
      0.455000          0.128021E-03
      0.460000          0.127074E-03
      0.465000          0.126211E-03
      0.470000          0.125374E-03
      0.475000          0.124509E-03
      0.480000          0.123569E-03
      0.485000          0.122517E-03
      0.490000          0.121330E-03
      0.495000          0.119992E-03
      0.500000          0.118504E-03
