 I_abs(s)[cm^-1]/c[mg/ml]
       0.00000          0.141483E-01
      0.500000E-02      0.140907E-01
      0.100000E-01      0.139192E-01
      0.150000E-01      0.136382E-01
      0.200000E-01      0.132541E-01
      0.250000E-01      0.127762E-01
      0.300000E-01      0.122155E-01
      0.350000E-01      0.115847E-01
      0.400000E-01      0.108978E-01
      0.450000E-01      0.101693E-01
      0.500000E-01      0.941415E-02
      0.550000E-01      0.864693E-02
      0.600000E-01      0.788162E-02
      0.650000E-01      0.713108E-02
      0.700000E-01      0.640681E-02
      0.750000E-01      0.571861E-02
      0.800000E-01      0.507445E-02
      0.850000E-01      0.448035E-02
      0.900000E-01      0.394036E-02
      0.950000E-01      0.345661E-02
      0.100000          0.302944E-02
      0.105000          0.265760E-02
      0.110000          0.233844E-02
      0.115000          0.206822E-02
      0.120000          0.184234E-02
      0.125000          0.165564E-02
      0.130000          0.150268E-02
      0.135000          0.137795E-02
      0.140000          0.127617E-02
      0.145000          0.119237E-02
      0.150000          0.112211E-02
      0.155000          0.106156E-02
      0.160000          0.100753E-02
      0.165000          0.957513E-03
      0.170000          0.909650E-03
      0.175000          0.862694E-03
      0.180000          0.815933E-03
      0.185000          0.769100E-03
      0.190000          0.722283E-03
      0.195000          0.675822E-03
      0.200000          0.630221E-03
      0.205000          0.586055E-03
      0.210000          0.543903E-03
      0.215000          0.504288E-03
      0.220000          0.467631E-03
      0.225000          0.434227E-03
      0.230000          0.404232E-03
      0.235000          0.377661E-03
      0.240000          0.354403E-03
      0.245000          0.334238E-03
      0.250000          0.316861E-03
      0.255000          0.301913E-03
      0.260000          0.289003E-03
      0.265000          0.277738E-03
      0.270000          0.267745E-03
      0.275000          0.258686E-03
      0.280000          0.250274E-03
      0.285000          0.242278E-03
      0.290000          0.234529E-03
      0.295000          0.226912E-03
      0.300000          0.219368E-03
      0.305000          0.211883E-03
      0.310000          0.204478E-03
      0.315000          0.197199E-03
      0.320000          0.190109E-03
      0.325000          0.183278E-03
      0.330000          0.176775E-03
      0.335000          0.170663E-03
      0.340000          0.164993E-03
      0.345000          0.159803E-03
      0.350000          0.155119E-03
      0.355000          0.150951E-03
      0.360000          0.147296E-03
      0.365000          0.144143E-03
      0.370000          0.141472E-03
      0.375000          0.139256E-03
      0.380000          0.137465E-03
      0.385000          0.136067E-03
      0.390000          0.135029E-03
      0.395000          0.134317E-03
      0.400000          0.133899E-03
      0.405000          0.133740E-03
      0.410000          0.133807E-03
      0.415000          0.134066E-03
      0.420000          0.134481E-03
      0.425000          0.135013E-03
      0.430000          0.135624E-03
      0.435000          0.136273E-03
      0.440000          0.136916E-03
      0.445000          0.137512E-03
      0.450000          0.138017E-03
      0.455000          0.138390E-03
      0.460000          0.138594E-03
      0.465000          0.138595E-03
      0.470000          0.138363E-03
      0.475000          0.137876E-03
      0.480000          0.137118E-03
      0.485000          0.136083E-03
      0.490000          0.134771E-03
      0.495000          0.133188E-03
      0.500000          0.131352E-03
