 I_abs(s)[cm^-1]/c[mg/ml]
       0.00000          0.137437E-01
      0.500000E-02      0.136785E-01
      0.100000E-01      0.134851E-01
      0.150000E-01      0.131700E-01
      0.200000E-01      0.127439E-01
      0.250000E-01      0.122206E-01
      0.300000E-01      0.116168E-01
      0.350000E-01      0.109506E-01
      0.400000E-01      0.102411E-01
      0.450000E-01      0.950699E-02
      0.500000E-01      0.876622E-02
      0.550000E-01      0.803479E-02
      0.600000E-01      0.732646E-02
      0.650000E-01      0.665233E-02
      0.700000E-01      0.602062E-02
      0.750000E-01      0.543676E-02
      0.800000E-01      0.490354E-02
      0.850000E-01      0.442146E-02
      0.900000E-01      0.398909E-02
      0.950000E-01      0.360356E-02
      0.100000          0.326104E-02
      0.105000          0.295715E-02
      0.110000          0.268735E-02
      0.115000          0.244723E-02
      0.120000          0.223276E-02
      0.125000          0.204037E-02
      0.130000          0.186705E-02
      0.135000          0.171031E-02
      0.140000          0.156816E-02
      0.145000          0.143900E-02
      0.150000          0.132152E-02
      0.155000          0.121466E-02
      0.160000          0.111747E-02
      0.165000          0.102912E-02
      0.170000          0.948820E-03
      0.175000          0.875811E-03
      0.180000          0.809388E-03
      0.185000          0.748888E-03
      0.190000          0.693709E-03
      0.195000          0.643320E-03
      0.200000          0.597262E-03
      0.205000          0.555151E-03
      0.210000          0.516661E-03
      0.215000          0.481514E-03
      0.220000          0.449460E-03
      0.225000          0.420257E-03
      0.230000          0.393659E-03
      0.235000          0.369410E-03
      0.240000          0.347236E-03
      0.245000          0.326859E-03
      0.250000          0.308004E-03
      0.255000          0.290417E-03
      0.260000          0.273880E-03
      0.265000          0.258230E-03
      0.270000          0.243368E-03
      0.275000          0.229260E-03
      0.280000          0.215940E-03
      0.285000          0.203496E-03
      0.290000          0.192052E-03
      0.295000          0.181751E-03
      0.300000          0.172729E-03
      0.305000          0.165093E-03
      0.310000          0.158903E-03
      0.315000          0.154161E-03
      0.320000          0.150801E-03
      0.325000          0.148695E-03
      0.330000          0.147656E-03
      0.335000          0.147459E-03
      0.340000          0.147852E-03
      0.345000          0.148582E-03
      0.350000          0.149408E-03
      0.355000          0.150125E-03
      0.360000          0.150570E-03
      0.365000          0.150634E-03
      0.370000          0.150258E-03
      0.375000          0.149436E-03
      0.380000          0.148203E-03
      0.385000          0.146625E-03
      0.390000          0.144785E-03
      0.395000          0.142775E-03
      0.400000          0.140681E-03
      0.405000          0.138576E-03
      0.410000          0.136515E-03
      0.415000          0.134533E-03
      0.420000          0.132648E-03
      0.425000          0.130860E-03
      0.430000          0.129159E-03
      0.435000          0.127532E-03
      0.440000          0.125965E-03
      0.445000          0.124449E-03
      0.450000          0.122982E-03
      0.455000          0.121569E-03
      0.460000          0.120222E-03
      0.465000          0.118958E-03
      0.470000          0.117794E-03
      0.475000          0.116744E-03
      0.480000          0.115814E-03
      0.485000          0.115003E-03
      0.490000          0.114300E-03
      0.495000          0.113680E-03
      0.500000          0.113113E-03
