 I_abs(s)[cm^-1]/c[mg/ml]
       0.00000          0.138521E-01
      0.500000E-02      0.137931E-01
      0.100000E-01      0.136181E-01
      0.150000E-01      0.133324E-01
      0.200000E-01      0.129445E-01
      0.250000E-01      0.124660E-01
      0.300000E-01      0.119104E-01
      0.350000E-01      0.112932E-01
      0.400000E-01      0.106305E-01
      0.450000E-01      0.993866E-02
      0.500000E-01      0.923360E-02
      0.550000E-01      0.853004E-02
      0.600000E-01      0.784108E-02
      0.650000E-01      0.717778E-02
      0.700000E-01      0.654895E-02
      0.750000E-01      0.596101E-02
      0.800000E-01      0.541804E-02
      0.850000E-01      0.492195E-02
      0.900000E-01      0.447270E-02
      0.950000E-01      0.406866E-02
      0.100000          0.370695E-02
      0.105000          0.338384E-02
      0.110000          0.309510E-02
      0.115000          0.283635E-02
      0.120000          0.260331E-02
      0.125000          0.239207E-02
      0.130000          0.219917E-02
      0.135000          0.202175E-02
      0.140000          0.185753E-02
      0.145000          0.170480E-02
      0.150000          0.156235E-02
      0.155000          0.142938E-02
      0.160000          0.130540E-02
      0.165000          0.119015E-02
      0.170000          0.108345E-02
      0.175000          0.985181E-03
      0.180000          0.895197E-03
      0.185000          0.813288E-03
      0.190000          0.739160E-03
      0.195000          0.672437E-03
      0.200000          0.612668E-03
      0.205000          0.559343E-03
      0.210000          0.511915E-03
      0.215000          0.469828E-03
      0.220000          0.432531E-03
      0.225000          0.399498E-03
      0.230000          0.370239E-03
      0.235000          0.344306E-03
      0.240000          0.321292E-03
      0.245000          0.300836E-03
      0.250000          0.282611E-03
      0.255000          0.266328E-03
      0.260000          0.251727E-03
      0.265000          0.238573E-03
      0.270000          0.226661E-03
      0.275000          0.215805E-03
      0.280000          0.205848E-03
      0.285000          0.196656E-03
      0.290000          0.188122E-03
      0.295000          0.180164E-03
      0.300000          0.172724E-03
      0.305000          0.165766E-03
      0.310000          0.159270E-03
      0.315000          0.153231E-03
      0.320000          0.147649E-03
      0.325000          0.142527E-03
      0.330000          0.137867E-03
      0.335000          0.133661E-03
      0.340000          0.129893E-03
      0.345000          0.126538E-03
      0.350000          0.123559E-03
      0.355000          0.120912E-03
      0.360000          0.118551E-03
      0.365000          0.116426E-03
      0.370000          0.114491E-03
      0.375000          0.112709E-03
      0.380000          0.111050E-03
      0.385000          0.109497E-03
      0.390000          0.108043E-03
      0.395000          0.106694E-03
      0.400000          0.105463E-03
      0.405000          0.104369E-03
      0.410000          0.103436E-03
      0.415000          0.102683E-03
      0.420000          0.102125E-03
      0.425000          0.101770E-03
      0.430000          0.101616E-03
      0.435000          0.101647E-03
      0.440000          0.101840E-03
      0.445000          0.102160E-03
      0.450000          0.102564E-03
      0.455000          0.103005E-03
      0.460000          0.103436E-03
      0.465000          0.103810E-03
      0.470000          0.104089E-03
      0.475000          0.104239E-03
      0.480000          0.104241E-03
      0.485000          0.104083E-03
      0.490000          0.103769E-03
      0.495000          0.103310E-03
      0.500000          0.102730E-03
