 I_abs(s)[cm^-1]/c[mg/ml]
       0.00000          0.144338E-01
      0.500000E-02      0.143849E-01
      0.100000E-01      0.142391E-01
      0.150000E-01      0.139994E-01
      0.200000E-01      0.136705E-01
      0.250000E-01      0.132587E-01
      0.300000E-01      0.127721E-01
      0.350000E-01      0.122197E-01
      0.400000E-01      0.116117E-01
      0.450000E-01      0.109591E-01
      0.500000E-01      0.102729E-01
      0.550000E-01      0.956458E-02
      0.600000E-01      0.884522E-02
      0.650000E-01      0.812545E-02
      0.700000E-01      0.741520E-02
      0.750000E-01      0.672343E-02
      0.800000E-01      0.605801E-02
      0.850000E-01      0.542558E-02
      0.900000E-01      0.483148E-02
      0.950000E-01      0.427971E-02
      0.100000          0.377296E-02
      0.105000          0.331267E-02
      0.110000          0.289908E-02
      0.115000          0.253142E-02
      0.120000          0.220799E-02
      0.125000          0.192635E-02
      0.130000          0.168346E-02
      0.135000          0.147588E-02
      0.140000          0.129990E-02
      0.145000          0.115171E-02
      0.150000          0.102751E-02
      0.155000          0.923648E-03
      0.160000          0.836691E-03
      0.165000          0.763516E-03
      0.170000          0.701351E-03
      0.175000          0.647801E-03
      0.180000          0.600860E-03
      0.185000          0.558904E-03
      0.190000          0.520667E-03
      0.195000          0.485211E-03
      0.200000          0.451884E-03
      0.205000          0.420274E-03
      0.210000          0.390168E-03
      0.215000          0.361497E-03
      0.220000          0.334298E-03
      0.225000          0.308677E-03
      0.230000          0.284766E-03
      0.235000          0.262704E-03
      0.240000          0.242612E-03
      0.245000          0.224575E-03
      0.250000          0.208637E-03
      0.255000          0.194793E-03
      0.260000          0.182990E-03
      0.265000          0.173133E-03
      0.270000          0.165085E-03
      0.275000          0.158681E-03
      0.280000          0.153732E-03
      0.285000          0.150038E-03
      0.290000          0.147393E-03
      0.295000          0.145594E-03
      0.300000          0.144449E-03
      0.305000          0.143780E-03
      0.310000          0.143428E-03
      0.315000          0.143257E-03
      0.320000          0.143153E-03
      0.325000          0.143024E-03
      0.330000          0.142802E-03
      0.335000          0.142439E-03
      0.340000          0.141905E-03
      0.345000          0.141188E-03
      0.350000          0.140285E-03
      0.355000          0.139208E-03
      0.360000          0.137973E-03
      0.365000          0.136603E-03
      0.370000          0.135125E-03
      0.375000          0.133563E-03
      0.380000          0.131945E-03
      0.385000          0.130293E-03
      0.390000          0.128629E-03
      0.395000          0.126970E-03
      0.400000          0.125331E-03
      0.405000          0.123721E-03
      0.410000          0.122148E-03
      0.415000          0.120616E-03
      0.420000          0.119126E-03
      0.425000          0.117677E-03
      0.430000          0.116267E-03
      0.435000          0.114894E-03
      0.440000          0.113553E-03
      0.445000          0.112241E-03
      0.450000          0.110955E-03
      0.455000          0.109692E-03
      0.460000          0.108449E-03
      0.465000          0.107224E-03
      0.470000          0.106017E-03
      0.475000          0.104825E-03
      0.480000          0.103649E-03
      0.485000          0.102487E-03
      0.490000          0.101338E-03
      0.495000          0.100201E-03
      0.500000          0.990742E-04
