 I_abs(s)[cm^-1]/c[mg/ml]
       0.00000          0.146161E-01
      0.500000E-02      0.145668E-01
      0.100000E-01      0.144198E-01
      0.150000E-01      0.141780E-01
      0.200000E-01      0.138463E-01
      0.250000E-01      0.134309E-01
      0.300000E-01      0.129397E-01
      0.350000E-01      0.123820E-01
      0.400000E-01      0.117679E-01
      0.450000E-01      0.111083E-01
      0.500000E-01      0.104143E-01
      0.550000E-01      0.969735E-02
      0.600000E-01      0.896856E-02
      0.650000E-01      0.823861E-02
      0.700000E-01      0.751746E-02
      0.750000E-01      0.681414E-02
      0.800000E-01      0.613661E-02
      0.850000E-01      0.549161E-02
      0.900000E-01      0.488461E-02
      0.950000E-01      0.431976E-02
      0.100000          0.379992E-02
      0.105000          0.332670E-02
      0.110000          0.290057E-02
      0.115000          0.252093E-02
      0.120000          0.218631E-02
      0.125000          0.189446E-02
      0.130000          0.164256E-02
      0.135000          0.142734E-02
      0.140000          0.124524E-02
      0.145000          0.109257E-02
      0.150000          0.965622E-03
      0.155000          0.860792E-03
      0.160000          0.774654E-03
      0.165000          0.704040E-03
      0.170000          0.646090E-03
      0.175000          0.598281E-03
      0.180000          0.558438E-03
      0.185000          0.524733E-03
      0.190000          0.495671E-03
      0.195000          0.470062E-03
      0.200000          0.446991E-03
      0.205000          0.425781E-03
      0.210000          0.405953E-03
      0.215000          0.387190E-03
      0.220000          0.369300E-03
      0.225000          0.352180E-03
      0.230000          0.335791E-03
      0.235000          0.320132E-03
      0.240000          0.305219E-03
      0.245000          0.291074E-03
      0.250000          0.277714E-03
      0.255000          0.265141E-03
      0.260000          0.253347E-03
      0.265000          0.242306E-03
      0.270000          0.231980E-03
      0.275000          0.222322E-03
      0.280000          0.213279E-03
      0.285000          0.204796E-03
      0.290000          0.196818E-03
      0.295000          0.189297E-03
      0.300000          0.182191E-03
      0.305000          0.175464E-03
      0.310000          0.169093E-03
      0.315000          0.163059E-03
      0.320000          0.157356E-03
      0.325000          0.151981E-03
      0.330000          0.146937E-03
      0.335000          0.142229E-03
      0.340000          0.137864E-03
      0.345000          0.133848E-03
      0.350000          0.130182E-03
      0.355000          0.126865E-03
      0.360000          0.123891E-03
      0.365000          0.121247E-03
      0.370000          0.118916E-03
      0.375000          0.116875E-03
      0.380000          0.115096E-03
      0.385000          0.113546E-03
      0.390000          0.112192E-03
      0.395000          0.110997E-03
      0.400000          0.109925E-03
      0.405000          0.108942E-03
      0.410000          0.108015E-03
      0.415000          0.107115E-03
      0.420000          0.106218E-03
      0.425000          0.105304E-03
      0.430000          0.104358E-03
      0.435000          0.103372E-03
      0.440000          0.102342E-03
      0.445000          0.101269E-03
      0.450000          0.100157E-03
      0.455000          0.990166E-04
      0.460000          0.978577E-04
      0.465000          0.966935E-04
      0.470000          0.955377E-04
      0.475000          0.944039E-04
      0.480000          0.933047E-04
      0.485000          0.922511E-04
      0.490000          0.912520E-04
      0.495000          0.903136E-04
      0.500000          0.894391E-04
