 I_abs(s)[cm^-1]/c[mg/ml]
       0.00000          0.147436E-01
      0.500000E-02      0.146947E-01
      0.100000E-01      0.145491E-01
      0.150000E-01      0.143098E-01
      0.200000E-01      0.139816E-01
      0.250000E-01      0.135710E-01
      0.300000E-01      0.130862E-01
      0.350000E-01      0.125363E-01
      0.400000E-01      0.119315E-01
      0.450000E-01      0.112828E-01
      0.500000E-01      0.106010E-01
      0.550000E-01      0.989743E-02
      0.600000E-01      0.918272E-02
      0.650000E-01      0.846704E-02
      0.700000E-01      0.775976E-02
      0.750000E-01      0.706923E-02
      0.800000E-01      0.640268E-02
      0.850000E-01      0.576614E-02
      0.900000E-01      0.516440E-02
      0.950000E-01      0.460102E-02
      0.100000          0.407838E-02
      0.105000          0.359779E-02
      0.110000          0.315956E-02
      0.115000          0.276320E-02
      0.120000          0.240746E-02
      0.125000          0.209056E-02
      0.130000          0.181029E-02
      0.135000          0.156415E-02
      0.140000          0.134944E-02
      0.145000          0.116339E-02
      0.150000          0.100323E-02
      0.155000          0.866280E-03
      0.160000          0.749935E-03
      0.165000          0.651765E-03
      0.170000          0.569500E-03
      0.175000          0.501051E-03
      0.180000          0.444508E-03
      0.185000          0.398141E-03
      0.190000          0.360387E-03
      0.195000          0.329848E-03
      0.200000          0.305276E-03
      0.205000          0.285568E-03
      0.210000          0.269753E-03
      0.215000          0.256990E-03
      0.220000          0.246559E-03
      0.225000          0.237850E-03
      0.230000          0.230364E-03
      0.235000          0.223701E-03
      0.240000          0.217553E-03
      0.245000          0.211694E-03
      0.250000          0.205974E-03
      0.255000          0.200306E-03
      0.260000          0.194654E-03
      0.265000          0.189026E-03
      0.270000          0.183456E-03
      0.275000          0.178002E-03
      0.280000          0.172730E-03
      0.285000          0.167710E-03
      0.290000          0.163007E-03
      0.295000          0.158675E-03
      0.300000          0.154758E-03
      0.305000          0.151285E-03
      0.310000          0.148268E-03
      0.315000          0.145708E-03
      0.320000          0.143591E-03
      0.325000          0.141891E-03
      0.330000          0.140575E-03
      0.335000          0.139604E-03
      0.340000          0.138934E-03
      0.345000          0.138516E-03
      0.350000          0.138304E-03
      0.355000          0.138247E-03
      0.360000          0.138299E-03
      0.365000          0.138411E-03
      0.370000          0.138539E-03
      0.375000          0.138636E-03
      0.380000          0.138661E-03
      0.385000          0.138573E-03
      0.390000          0.138333E-03
      0.395000          0.137906E-03
      0.400000          0.137262E-03
      0.405000          0.136373E-03
      0.410000          0.135219E-03
      0.415000          0.133787E-03
      0.420000          0.132068E-03
      0.425000          0.130064E-03
      0.430000          0.127783E-03
      0.435000          0.125241E-03
      0.440000          0.122463E-03
      0.445000          0.119478E-03
      0.450000          0.116323E-03
      0.455000          0.113039E-03
      0.460000          0.109669E-03
      0.465000          0.106260E-03
      0.470000          0.102858E-03
      0.475000          0.995070E-04
      0.480000          0.962506E-04
      0.485000          0.931280E-04
      0.490000          0.901738E-04
      0.495000          0.874180E-04
      0.500000          0.848852E-04
