 I_abs(s)[cm^-1]/c[mg/ml]
       0.00000          0.146002E-01
      0.500000E-02      0.144972E-01
      0.100000E-01      0.141926E-01
      0.150000E-01      0.136995E-01
      0.200000E-01      0.130387E-01
      0.250000E-01      0.122373E-01
      0.300000E-01      0.113272E-01
      0.350000E-01      0.103426E-01
      0.400000E-01      0.931865E-02
      0.450000E-01      0.828890E-02
      0.500000E-01      0.728381E-02
      0.550000E-01      0.632927E-02
      0.600000E-01      0.544566E-02
      0.650000E-01      0.464733E-02
      0.700000E-01      0.394257E-02
      0.750000E-01      0.333401E-02
      0.800000E-01      0.281932E-02
      0.850000E-01      0.239222E-02
      0.900000E-01      0.204357E-02
      0.950000E-01      0.176255E-02
      0.100000          0.153770E-02
      0.105000          0.135786E-02
      0.110000          0.121287E-02
      0.115000          0.109408E-02
      0.120000          0.994579E-03
      0.125000          0.909218E-03
      0.130000          0.834494E-03
      0.135000          0.768270E-03
      0.140000          0.709443E-03
      0.145000          0.657589E-03
      0.150000          0.612633E-03
      0.155000          0.574573E-03
      0.160000          0.543284E-03
      0.165000          0.518402E-03
      0.170000          0.499288E-03
      0.175000          0.485050E-03
      0.180000          0.474622E-03
      0.185000          0.466853E-03
      0.190000          0.460615E-03
      0.195000          0.454892E-03
      0.200000          0.448847E-03
      0.205000          0.441865E-03
      0.210000          0.433562E-03
      0.215000          0.423773E-03
      0.220000          0.412519E-03
      0.225000          0.399961E-03
      0.230000          0.386352E-03
      0.235000          0.371996E-03
      0.240000          0.357204E-03
      0.245000          0.342273E-03
      0.250000          0.327466E-03
      0.255000          0.313008E-03
      0.260000          0.299084E-03
      0.265000          0.285844E-03
      0.270000          0.273409E-03
      0.275000          0.261875E-03
      0.280000          0.251319E-03
      0.285000          0.241796E-03
      0.290000          0.233340E-03
      0.295000          0.225958E-03
      0.300000          0.219630E-03
      0.305000          0.214306E-03
      0.310000          0.209905E-03
      0.315000          0.206318E-03
      0.320000          0.203416E-03
      0.325000          0.201055E-03
      0.330000          0.199083E-03
      0.335000          0.197355E-03
      0.340000          0.195738E-03
      0.345000          0.194115E-03
      0.350000          0.192396E-03
      0.355000          0.190518E-03
      0.360000          0.188441E-03
      0.365000          0.186153E-03
      0.370000          0.183656E-03
      0.375000          0.180972E-03
      0.380000          0.178127E-03
      0.385000          0.175152E-03
      0.390000          0.172076E-03
      0.395000          0.168921E-03
      0.400000          0.165702E-03
      0.405000          0.162425E-03
      0.410000          0.159087E-03
      0.415000          0.155676E-03
      0.420000          0.152175E-03
      0.425000          0.148567E-03
      0.430000          0.144832E-03
      0.435000          0.140958E-03
      0.440000          0.136938E-03
      0.445000          0.132776E-03
      0.450000          0.128489E-03
      0.455000          0.124107E-03
      0.460000          0.119673E-03
      0.465000          0.115246E-03
      0.470000          0.110891E-03
      0.475000          0.106685E-03
      0.480000          0.102705E-03
      0.485000          0.990298E-04
      0.490000          0.957298E-04
      0.495000          0.928664E-04
      0.500000          0.904858E-04
