 I_abs(s)[cm^-1]/c[mg/ml]
       0.00000          0.146877E-01
      0.500000E-02      0.146004E-01
      0.100000E-01      0.143417E-01
      0.150000E-01      0.139211E-01
      0.200000E-01      0.133540E-01
      0.250000E-01      0.126607E-01
      0.300000E-01      0.118651E-01
      0.350000E-01      0.109938E-01
      0.400000E-01      0.100743E-01
      0.450000E-01      0.913382E-02
      0.500000E-01      0.819817E-02
      0.550000E-01      0.729026E-02
      0.600000E-01      0.642947E-02
      0.650000E-01      0.563098E-02
      0.700000E-01      0.490546E-02
      0.750000E-01      0.425909E-02
      0.800000E-01      0.369381E-02
      0.850000E-01      0.320781E-02
      0.900000E-01      0.279623E-02
      0.950000E-01      0.245188E-02
      0.100000          0.216610E-02
      0.105000          0.192956E-02
      0.110000          0.173293E-02
      0.115000          0.156752E-02
      0.120000          0.142569E-02
      0.125000          0.130117E-02
      0.130000          0.118916E-02
      0.135000          0.108635E-02
      0.140000          0.990706E-03
      0.145000          0.901316E-03
      0.150000          0.818070E-03
      0.155000          0.741377E-03
      0.160000          0.671876E-03
      0.165000          0.610191E-03
      0.170000          0.556746E-03
      0.175000          0.511643E-03
      0.180000          0.474602E-03
      0.185000          0.444974E-03
      0.190000          0.421796E-03
      0.195000          0.403884E-03
      0.200000          0.389946E-03
      0.205000          0.378695E-03
      0.210000          0.368958E-03
      0.215000          0.359754E-03
      0.220000          0.350348E-03
      0.225000          0.340281E-03
      0.230000          0.329354E-03
      0.235000          0.317605E-03
      0.240000          0.305249E-03
      0.245000          0.292626E-03
      0.250000          0.280128E-03
      0.255000          0.268146E-03
      0.260000          0.257016E-03
      0.265000          0.246988E-03
      0.270000          0.238203E-03
      0.275000          0.230696E-03
      0.280000          0.224400E-03
      0.285000          0.219173E-03
      0.290000          0.214820E-03
      0.295000          0.211128E-03
      0.300000          0.207888E-03
      0.305000          0.204922E-03
      0.310000          0.202095E-03
      0.315000          0.199324E-03
      0.320000          0.196575E-03
      0.325000          0.193858E-03
      0.330000          0.191214E-03
      0.335000          0.188699E-03
      0.340000          0.186367E-03
      0.345000          0.184259E-03
      0.350000          0.182393E-03
      0.355000          0.180753E-03
      0.360000          0.179296E-03
      0.365000          0.177949E-03
      0.370000          0.176621E-03
      0.375000          0.175213E-03
      0.380000          0.173625E-03
      0.385000          0.171775E-03
      0.390000          0.169602E-03
      0.395000          0.167076E-03
      0.400000          0.164201E-03
      0.405000          0.161013E-03
      0.410000          0.157579E-03
      0.415000          0.153987E-03
      0.420000          0.150337E-03
      0.425000          0.146734E-03
      0.430000          0.143276E-03
      0.435000          0.140044E-03
      0.440000          0.137099E-03
      0.445000          0.134472E-03
      0.450000          0.132169E-03
      0.455000          0.130168E-03
      0.460000          0.128425E-03
      0.465000          0.126880E-03
      0.470000          0.125464E-03
      0.475000          0.124105E-03
      0.480000          0.122740E-03
      0.485000          0.121313E-03
      0.490000          0.119789E-03
      0.495000          0.118146E-03
      0.500000          0.116384E-03
