 I_abs(s)[cm^-1]/c[mg/ml]
       0.00000          0.147356E-01
      0.500000E-02      0.146896E-01
      0.100000E-01      0.145525E-01
      0.150000E-01      0.143268E-01
      0.200000E-01      0.140168E-01
      0.250000E-01      0.136281E-01
      0.300000E-01      0.131678E-01
      0.350000E-01      0.126440E-01
      0.400000E-01      0.120657E-01
      0.450000E-01      0.114425E-01
      0.500000E-01      0.107845E-01
      0.550000E-01      0.101017E-01
      0.600000E-01      0.940414E-02
      0.650000E-01      0.870137E-02
      0.700000E-01      0.800234E-02
      0.750000E-01      0.731525E-02
      0.800000E-01      0.664738E-02
      0.850000E-01      0.600499E-02
      0.900000E-01      0.539329E-02
      0.950000E-01      0.481636E-02
      0.100000          0.427723E-02
      0.105000          0.377786E-02
      0.110000          0.331927E-02
      0.115000          0.290161E-02
      0.120000          0.252427E-02
      0.125000          0.218599E-02
      0.130000          0.188503E-02
      0.135000          0.161923E-02
      0.140000          0.138616E-02
      0.145000          0.118325E-02
      0.150000          0.100783E-02
      0.155000          0.857249E-03
      0.160000          0.728913E-03
      0.165000          0.620361E-03
      0.170000          0.529277E-03
      0.175000          0.453523E-03
      0.180000          0.391139E-03
      0.185000          0.340353E-03
      0.190000          0.299568E-03
      0.195000          0.267353E-03
      0.200000          0.242430E-03
      0.205000          0.223657E-03
      0.210000          0.210015E-03
      0.215000          0.200592E-03
      0.220000          0.194575E-03
      0.225000          0.191237E-03
      0.230000          0.189933E-03
      0.235000          0.190093E-03
      0.240000          0.191219E-03
      0.245000          0.192883E-03
      0.250000          0.194725E-03
      0.255000          0.196450E-03
      0.260000          0.197828E-03
      0.265000          0.198688E-03
      0.270000          0.198915E-03
      0.275000          0.198449E-03
      0.280000          0.197270E-03
      0.285000          0.195400E-03
      0.290000          0.192892E-03
      0.295000          0.189820E-03
      0.300000          0.186276E-03
      0.305000          0.182359E-03
      0.310000          0.178172E-03
      0.315000          0.173812E-03
      0.320000          0.169372E-03
      0.325000          0.164930E-03
      0.330000          0.160553E-03
      0.335000          0.156295E-03
      0.340000          0.152193E-03
      0.345000          0.148273E-03
      0.350000          0.144550E-03
      0.355000          0.141027E-03
      0.360000          0.137701E-03
      0.365000          0.134563E-03
      0.370000          0.131602E-03
      0.375000          0.128801E-03
      0.380000          0.126149E-03
      0.385000          0.123630E-03
      0.390000          0.121233E-03
      0.395000          0.118947E-03
      0.400000          0.116764E-03
      0.405000          0.114676E-03
      0.410000          0.112679E-03
      0.415000          0.110766E-03
      0.420000          0.108932E-03
      0.425000          0.107175E-03
      0.430000          0.105488E-03
      0.435000          0.103866E-03
      0.440000          0.102304E-03
      0.445000          0.100797E-03
      0.450000          0.993378E-04
      0.455000          0.979220E-04
      0.460000          0.965443E-04
      0.465000          0.952005E-04
      0.470000          0.938874E-04
      0.475000          0.926029E-04
      0.480000          0.913460E-04
      0.485000          0.901171E-04
      0.490000          0.889173E-04
      0.495000          0.877487E-04
      0.500000          0.866136E-04
