 I_abs(s)[cm^-1]/c[mg/ml]
       0.00000          0.148476E-01
      0.500000E-02      0.147966E-01
      0.100000E-01      0.146449E-01
      0.150000E-01      0.143955E-01
      0.200000E-01      0.140539E-01
      0.250000E-01      0.136270E-01
      0.300000E-01      0.131236E-01
      0.350000E-01      0.125535E-01
      0.400000E-01      0.119279E-01
      0.450000E-01      0.112582E-01
      0.500000E-01      0.105563E-01
      0.550000E-01      0.983382E-02
      0.600000E-01      0.910223E-02
      0.650000E-01      0.837210E-02
      0.700000E-01      0.765312E-02
      0.750000E-01      0.695386E-02
      0.800000E-01      0.628162E-02
      0.850000E-01      0.564235E-02
      0.900000E-01      0.504065E-02
      0.950000E-01      0.447981E-02
      0.100000          0.396184E-02
      0.105000          0.348762E-02
      0.110000          0.305703E-02
      0.115000          0.266909E-02
      0.120000          0.232215E-02
      0.125000          0.201400E-02
      0.130000          0.174210E-02
      0.135000          0.150366E-02
      0.140000          0.129578E-02
      0.145000          0.111556E-02
      0.150000          0.960177E-03
      0.155000          0.826943E-03
      0.160000          0.713339E-03
      0.165000          0.617043E-03
      0.170000          0.535937E-03
      0.175000          0.468098E-03
      0.180000          0.411795E-03
      0.185000          0.365467E-03
      0.190000          0.327710E-03
      0.195000          0.297258E-03
      0.200000          0.272969E-03
      0.205000          0.253814E-03
      0.210000          0.238866E-03
      0.215000          0.227296E-03
      0.220000          0.218371E-03
      0.225000          0.211449E-03
      0.230000          0.205981E-03
      0.235000          0.201506E-03
      0.240000          0.197656E-03
      0.245000          0.194145E-03
      0.250000          0.190769E-03
      0.255000          0.187396E-03
      0.260000          0.183961E-03
      0.265000          0.180448E-03
      0.270000          0.176885E-03
      0.275000          0.173331E-03
      0.280000          0.169860E-03
      0.285000          0.166554E-03
      0.290000          0.163491E-03
      0.295000          0.160739E-03
      0.300000          0.158347E-03
      0.305000          0.156342E-03
      0.310000          0.154728E-03
      0.315000          0.153487E-03
      0.320000          0.152579E-03
      0.325000          0.151946E-03
      0.330000          0.151517E-03
      0.335000          0.151213E-03
      0.340000          0.150954E-03
      0.345000          0.150659E-03
      0.350000          0.150256E-03
      0.355000          0.149683E-03
      0.360000          0.148893E-03
      0.365000          0.147851E-03
      0.370000          0.146542E-03
      0.375000          0.144963E-03
      0.380000          0.143127E-03
      0.385000          0.141061E-03
      0.390000          0.138799E-03
      0.395000          0.136386E-03
      0.400000          0.133869E-03
      0.405000          0.131296E-03
      0.410000          0.128714E-03
      0.415000          0.126169E-03
      0.420000          0.123696E-03
      0.425000          0.121328E-03
      0.430000          0.119087E-03
      0.435000          0.116987E-03
      0.440000          0.115037E-03
      0.445000          0.113234E-03
      0.450000          0.111571E-03
      0.455000          0.110037E-03
      0.460000          0.108616E-03
      0.465000          0.107288E-03
      0.470000          0.106036E-03
      0.475000          0.104841E-03
      0.480000          0.103687E-03
      0.485000          0.102559E-03
      0.490000          0.101447E-03
      0.495000          0.100345E-03
      0.500000          0.992478E-04
