 I_abs(s)[cm^-1]/c[mg/ml]
       0.00000          0.141742E-01
      0.500000E-02      0.140188E-01
      0.100000E-01      0.135634E-01
      0.150000E-01      0.128395E-01
      0.200000E-01      0.118959E-01
      0.250000E-01      0.107926E-01
      0.300000E-01      0.959507E-02
      0.350000E-01      0.836740E-02
      0.400000E-01      0.716701E-02
      0.450000E-01      0.604037E-02
      0.500000E-01      0.502082E-02
      0.550000E-01      0.412808E-02
      0.600000E-01      0.336946E-02
      0.650000E-01      0.274213E-02
      0.700000E-01      0.223595E-02
      0.750000E-01      0.183637E-02
      0.800000E-01      0.152694E-02
      0.850000E-01      0.129122E-02
      0.900000E-01      0.111403E-02
      0.950000E-01      0.982089E-03
      0.100000          0.884222E-03
      0.105000          0.811293E-03
      0.110000          0.756027E-03
      0.115000          0.712802E-03
      0.120000          0.677470E-03
      0.125000          0.647171E-03
      0.130000          0.620151E-03
      0.135000          0.595518E-03
      0.140000          0.572979E-03
      0.145000          0.552549E-03
      0.150000          0.534293E-03
      0.155000          0.518130E-03
      0.160000          0.503746E-03
      0.165000          0.490604E-03
      0.170000          0.478051E-03
      0.175000          0.465459E-03
      0.180000          0.452372E-03
      0.185000          0.438603E-03
      0.190000          0.424258E-03
      0.195000          0.409688E-03
      0.200000          0.395387E-03
      0.205000          0.381857E-03
      0.210000          0.369496E-03
      0.215000          0.358520E-03
      0.220000          0.348939E-03
      0.225000          0.340587E-03
      0.230000          0.333187E-03
      0.235000          0.326431E-03
      0.240000          0.320043E-03
      0.245000          0.313827E-03
      0.250000          0.307671E-03
      0.255000          0.301535E-03
      0.260000          0.295409E-03
      0.265000          0.289282E-03
      0.270000          0.283115E-03
      0.275000          0.276825E-03
      0.280000          0.270304E-03
      0.285000          0.263433E-03
      0.290000          0.256120E-03
      0.295000          0.248324E-03
      0.300000          0.240074E-03
      0.305000          0.231479E-03
      0.310000          0.222716E-03
      0.315000          0.214018E-03
      0.320000          0.205645E-03
      0.325000          0.197858E-03
      0.330000          0.190889E-03
      0.335000          0.184918E-03
      0.340000          0.180055E-03
      0.345000          0.176327E-03
      0.350000          0.173675E-03
      0.355000          0.171964E-03
      0.360000          0.170994E-03
      0.365000          0.170522E-03
      0.370000          0.170288E-03
      0.375000          0.170040E-03
      0.380000          0.169557E-03
      0.385000          0.168666E-03
      0.390000          0.167254E-03
      0.395000          0.165269E-03
      0.400000          0.162714E-03
      0.405000          0.159638E-03
      0.410000          0.156126E-03
      0.415000          0.152282E-03
      0.420000          0.148220E-03
      0.425000          0.144054E-03
      0.430000          0.139888E-03
      0.435000          0.135810E-03
      0.440000          0.131887E-03
      0.445000          0.128160E-03
      0.450000          0.124641E-03
      0.455000          0.121314E-03
      0.460000          0.118142E-03
      0.465000          0.115072E-03
      0.470000          0.112045E-03
      0.475000          0.109012E-03
      0.480000          0.105940E-03
      0.485000          0.102822E-03
      0.490000          0.996753E-04
      0.495000          0.965419E-04
      0.500000          0.934780E-04
