 I_abs(s)[cm^-1]/c[mg/ml]
       0.00000          0.144101E-01
      0.500000E-02      0.143602E-01
      0.100000E-01      0.142117E-01
      0.150000E-01      0.139673E-01
      0.200000E-01      0.136319E-01
      0.250000E-01      0.132119E-01
      0.300000E-01      0.127153E-01
      0.350000E-01      0.121512E-01
      0.400000E-01      0.115301E-01
      0.450000E-01      0.108627E-01
      0.500000E-01      0.101605E-01
      0.550000E-01      0.943488E-02
      0.600000E-01      0.869720E-02
      0.650000E-01      0.795827E-02
      0.700000E-01      0.722823E-02
      0.750000E-01      0.651630E-02
      0.800000E-01      0.583065E-02
      0.850000E-01      0.517826E-02
      0.900000E-01      0.456482E-02
      0.950000E-01      0.399473E-02
      0.100000          0.347108E-02
      0.105000          0.299574E-02
      0.110000          0.256938E-02
      0.115000          0.219162E-02
      0.120000          0.186115E-02
      0.125000          0.157585E-02
      0.130000          0.133297E-02
      0.135000          0.112926E-02
      0.140000          0.961130E-03
      0.145000          0.824784E-03
      0.150000          0.716340E-03
      0.155000          0.631951E-03
      0.160000          0.567897E-03
      0.165000          0.520663E-03
      0.170000          0.486999E-03
      0.175000          0.463962E-03
      0.180000          0.448942E-03
      0.185000          0.439677E-03
      0.190000          0.434251E-03
      0.195000          0.431084E-03
      0.200000          0.428914E-03
      0.205000          0.426768E-03
      0.210000          0.423939E-03
      0.215000          0.419948E-03
      0.220000          0.414512E-03
      0.225000          0.407512E-03
      0.230000          0.398958E-03
      0.235000          0.388962E-03
      0.240000          0.377704E-03
      0.245000          0.365416E-03
      0.250000          0.352350E-03
      0.255000          0.338769E-03
      0.260000          0.324925E-03
      0.265000          0.311053E-03
      0.270000          0.297360E-03
      0.275000          0.284021E-03
      0.280000          0.271174E-03
      0.285000          0.258925E-03
      0.290000          0.247345E-03
      0.295000          0.236473E-03
      0.300000          0.226325E-03
      0.305000          0.216893E-03
      0.310000          0.208156E-03
      0.315000          0.200079E-03
      0.320000          0.192623E-03
      0.325000          0.185745E-03
      0.330000          0.179403E-03
      0.335000          0.173558E-03
      0.340000          0.168174E-03
      0.345000          0.163220E-03
      0.350000          0.158669E-03
      0.355000          0.154497E-03
      0.360000          0.150680E-03
      0.365000          0.147195E-03
      0.370000          0.144018E-03
      0.375000          0.141120E-03
      0.380000          0.138469E-03
      0.385000          0.136030E-03
      0.390000          0.133761E-03
      0.395000          0.131619E-03
      0.400000          0.129558E-03
      0.405000          0.127533E-03
      0.410000          0.125498E-03
      0.415000          0.123413E-03
      0.420000          0.121246E-03
      0.425000          0.118971E-03
      0.430000          0.116572E-03
      0.435000          0.114046E-03
      0.440000          0.111399E-03
      0.445000          0.108652E-03
      0.450000          0.105834E-03
      0.455000          0.102986E-03
      0.460000          0.100154E-03
      0.465000          0.973888E-04
      0.470000          0.947452E-04
      0.475000          0.922753E-04
      0.480000          0.900277E-04
      0.485000          0.880442E-04
      0.490000          0.863576E-04
      0.495000          0.849895E-04
      0.500000          0.839491E-04
