 I_abs(s)[cm^-1]/c[mg/ml]
       0.00000          0.139559E-01
      0.500000E-02      0.138471E-01
      0.100000E-01      0.135267E-01
      0.150000E-01      0.130115E-01
      0.200000E-01      0.123280E-01
      0.250000E-01      0.115102E-01
      0.300000E-01      0.105967E-01
      0.350000E-01      0.962739E-02
      0.400000E-01      0.864111E-02
      0.450000E-01      0.767261E-02
      0.500000E-01      0.675074E-02
      0.550000E-01      0.589728E-02
      0.600000E-01      0.512640E-02
      0.650000E-01      0.444502E-02
      0.700000E-01      0.385366E-02
      0.750000E-01      0.334778E-02
      0.800000E-01      0.291924E-02
      0.850000E-01      0.255790E-02
      0.900000E-01      0.225297E-02
      0.950000E-01      0.199413E-02
      0.100000          0.177230E-02
      0.105000          0.158005E-02
      0.110000          0.141176E-02
      0.115000          0.126344E-02
      0.120000          0.113245E-02
      0.125000          0.101714E-02
      0.130000          0.916475E-03
      0.135000          0.829674E-03
      0.140000          0.755991E-03
      0.145000          0.694549E-03
      0.150000          0.644274E-03
      0.155000          0.603889E-03
      0.160000          0.571975E-03
      0.165000          0.547040E-03
      0.170000          0.527603E-03
      0.175000          0.512276E-03
      0.180000          0.499816E-03
      0.185000          0.489174E-03
      0.190000          0.479508E-03
      0.195000          0.470188E-03
      0.200000          0.460784E-03
      0.205000          0.451036E-03
      0.210000          0.440825E-03
      0.215000          0.430133E-03
      0.220000          0.419007E-03
      0.225000          0.407525E-03
      0.230000          0.395770E-03
      0.235000          0.383811E-03
      0.240000          0.371698E-03
      0.245000          0.359462E-03
      0.250000          0.347122E-03
      0.255000          0.334699E-03
      0.260000          0.322229E-03
      0.265000          0.309774E-03
      0.270000          0.297425E-03
      0.275000          0.285298E-03
      0.280000          0.273533E-03
      0.285000          0.262272E-03
      0.290000          0.251650E-03
      0.295000          0.241781E-03
      0.300000          0.232740E-03
      0.305000          0.224565E-03
      0.310000          0.217245E-03
      0.315000          0.210733E-03
      0.320000          0.204944E-03
      0.325000          0.199767E-03
      0.330000          0.195074E-03
      0.335000          0.190731E-03
      0.340000          0.186601E-03
      0.345000          0.182556E-03
      0.350000          0.178485E-03
      0.355000          0.174297E-03
      0.360000          0.169928E-03
      0.365000          0.165350E-03
      0.370000          0.160573E-03
      0.375000          0.155645E-03
      0.380000          0.150651E-03
      0.385000          0.145705E-03
      0.390000          0.140942E-03
      0.395000          0.136499E-03
      0.400000          0.132501E-03
      0.405000          0.129049E-03
      0.410000          0.126203E-03
      0.415000          0.123974E-03
      0.420000          0.122328E-03
      0.425000          0.121186E-03
      0.430000          0.120437E-03
      0.435000          0.119951E-03
      0.440000          0.119594E-03
      0.445000          0.119246E-03
      0.450000          0.118806E-03
      0.455000          0.118205E-03
      0.460000          0.117405E-03
      0.465000          0.116394E-03
      0.470000          0.115185E-03
      0.475000          0.113802E-03
      0.480000          0.112275E-03
      0.485000          0.110631E-03
      0.490000          0.108894E-03
      0.495000          0.107079E-03
      0.500000          0.105195E-03
