 I_abs(s)[cm^-1]/c[mg/ml]
       0.00000          0.143234E-01
      0.500000E-02      0.142675E-01
      0.100000E-01      0.141012E-01
      0.150000E-01      0.138286E-01
      0.200000E-01      0.134564E-01
      0.250000E-01      0.129934E-01
      0.300000E-01      0.124505E-01
      0.350000E-01      0.118402E-01
      0.400000E-01      0.111758E-01
      0.450000E-01      0.104714E-01
      0.500000E-01      0.974113E-02
      0.550000E-01      0.899864E-02
      0.600000E-01      0.825691E-02
      0.650000E-01      0.752771E-02
      0.700000E-01      0.682140E-02
      0.750000E-01      0.614668E-02
      0.800000E-01      0.551049E-02
      0.850000E-01      0.491799E-02
      0.900000E-01      0.437257E-02
      0.950000E-01      0.387598E-02
      0.100000          0.342847E-02
      0.105000          0.302904E-02
      0.110000          0.267561E-02
      0.115000          0.236532E-02
      0.120000          0.209472E-02
      0.125000          0.186003E-02
      0.130000          0.165734E-02
      0.135000          0.148275E-02
      0.140000          0.133254E-02
      0.145000          0.120324E-02
      0.150000          0.109172E-02
      0.155000          0.995233E-03
      0.160000          0.911379E-03
      0.165000          0.838133E-03
      0.170000          0.773794E-03
      0.175000          0.716954E-03
      0.180000          0.666450E-03
      0.185000          0.621324E-03
      0.190000          0.580781E-03
      0.195000          0.544155E-03
      0.200000          0.510881E-03
      0.205000          0.480477E-03
      0.210000          0.452525E-03
      0.215000          0.426669E-03
      0.220000          0.402605E-03
      0.225000          0.380081E-03
      0.230000          0.358895E-03
      0.235000          0.338891E-03
      0.240000          0.319962E-03
      0.245000          0.302037E-03
      0.250000          0.285082E-03
      0.255000          0.269089E-03
      0.260000          0.254067E-03
      0.265000          0.240035E-03
      0.270000          0.227013E-03
      0.275000          0.215014E-03
      0.280000          0.204039E-03
      0.285000          0.194075E-03
      0.290000          0.185091E-03
      0.295000          0.177041E-03
      0.300000          0.169864E-03
      0.305000          0.163487E-03
      0.310000          0.157831E-03
      0.315000          0.152815E-03
      0.320000          0.148359E-03
      0.325000          0.144387E-03
      0.330000          0.140834E-03
      0.335000          0.137638E-03
      0.340000          0.134752E-03
      0.345000          0.132132E-03
      0.350000          0.129745E-03
      0.355000          0.127561E-03
      0.360000          0.125552E-03
      0.365000          0.123693E-03
      0.370000          0.121957E-03
      0.375000          0.120318E-03
      0.380000          0.118744E-03
      0.385000          0.117206E-03
      0.390000          0.115673E-03
      0.395000          0.114114E-03
      0.400000          0.112504E-03
      0.405000          0.110820E-03
      0.410000          0.109047E-03
      0.415000          0.107179E-03
      0.420000          0.105215E-03
      0.425000          0.103167E-03
      0.430000          0.101051E-03
      0.435000          0.988932E-04
      0.440000          0.967237E-04
      0.445000          0.945763E-04
      0.450000          0.924855E-04
      0.455000          0.904846E-04
      0.460000          0.886035E-04
      0.465000          0.868663E-04
      0.470000          0.852902E-04
      0.475000          0.838842E-04
      0.480000          0.826493E-04
      0.485000          0.815776E-04
      0.490000          0.806540E-04
      0.495000          0.798569E-04
      0.500000          0.791595E-04
