 I_abs(s)[cm^-1]/c[mg/ml]
       0.00000          0.143234E-01
      0.500000E-02      0.142692E-01
      0.100000E-01      0.141078E-01
      0.150000E-01      0.138424E-01
      0.200000E-01      0.134788E-01
      0.250000E-01      0.130242E-01
      0.300000E-01      0.124879E-01
      0.350000E-01      0.118806E-01
      0.400000E-01      0.112141E-01
      0.450000E-01      0.105009E-01
      0.500000E-01      0.975396E-02
      0.550000E-01      0.898636E-02
      0.600000E-01      0.821083E-02
      0.650000E-01      0.743953E-02
      0.700000E-01      0.668368E-02
      0.750000E-01      0.595338E-02
      0.800000E-01      0.525739E-02
      0.850000E-01      0.460299E-02
      0.900000E-01      0.399591E-02
      0.950000E-01      0.344028E-02
      0.100000          0.293869E-02
      0.105000          0.249225E-02
      0.110000          0.210069E-02
      0.115000          0.176255E-02
      0.120000          0.147530E-02
      0.125000          0.123559E-02
      0.130000          0.103942E-02
      0.135000          0.882339E-03
      0.140000          0.759636E-03
      0.145000          0.666531E-03
      0.150000          0.598318E-03
      0.155000          0.550499E-03
      0.160000          0.518896E-03
      0.165000          0.499722E-03
      0.170000          0.489641E-03
      0.175000          0.485790E-03
      0.180000          0.485789E-03
      0.185000          0.487722E-03
      0.190000          0.490108E-03
      0.195000          0.491861E-03
      0.200000          0.492237E-03
      0.205000          0.490782E-03
      0.210000          0.487275E-03
      0.215000          0.481674E-03
      0.220000          0.474069E-03
      0.225000          0.464639E-03
      0.230000          0.453612E-03
      0.235000          0.441240E-03
      0.240000          0.427774E-03
      0.245000          0.413451E-03
      0.250000          0.398484E-03
      0.255000          0.383060E-03
      0.260000          0.367338E-03
      0.265000          0.351451E-03
      0.270000          0.335512E-03
      0.275000          0.319622E-03
      0.280000          0.303869E-03
      0.285000          0.288336E-03
      0.290000          0.273103E-03
      0.295000          0.258250E-03
      0.300000          0.243856E-03
      0.305000          0.230001E-03
      0.310000          0.216761E-03
      0.315000          0.204207E-03
      0.320000          0.192404E-03
      0.325000          0.181406E-03
      0.330000          0.171253E-03
      0.335000          0.161974E-03
      0.340000          0.153581E-03
      0.345000          0.146070E-03
      0.350000          0.139422E-03
      0.355000          0.133602E-03
      0.360000          0.128567E-03
      0.365000          0.124260E-03
      0.370000          0.120618E-03
      0.375000          0.117574E-03
      0.380000          0.115059E-03
      0.385000          0.113004E-03
      0.390000          0.111343E-03
      0.395000          0.110013E-03
      0.400000          0.108959E-03
      0.405000          0.108129E-03
      0.410000          0.107481E-03
      0.415000          0.106975E-03
      0.420000          0.106579E-03
      0.425000          0.106265E-03
      0.430000          0.106009E-03
      0.435000          0.105789E-03
      0.440000          0.105586E-03
      0.445000          0.105381E-03
      0.450000          0.105157E-03
      0.455000          0.104895E-03
      0.460000          0.104578E-03
      0.465000          0.104190E-03
      0.470000          0.103714E-03
      0.475000          0.103136E-03
      0.480000          0.102441E-03
      0.485000          0.101620E-03
      0.490000          0.100665E-03
      0.495000          0.995712E-04
      0.500000          0.983394E-04
