 I_abs(s)[cm^-1]/c[mg/ml]
       0.00000          0.146588E-01
      0.500000E-02      0.146002E-01
      0.100000E-01      0.144261E-01
      0.150000E-01      0.141414E-01
      0.200000E-01      0.137543E-01
      0.250000E-01      0.132754E-01
      0.300000E-01      0.127174E-01
      0.350000E-01      0.120948E-01
      0.400000E-01      0.114225E-01
      0.450000E-01      0.107158E-01
      0.500000E-01      0.998955E-02
      0.550000E-01      0.925756E-02
      0.600000E-01      0.853223E-02
      0.650000E-01      0.782419E-02
      0.700000E-01      0.714218E-02
      0.750000E-01      0.649294E-02
      0.800000E-01      0.588126E-02
      0.850000E-01      0.531018E-02
      0.900000E-01      0.478114E-02
      0.950000E-01      0.429430E-02
      0.100000          0.384878E-02
      0.105000          0.344297E-02
      0.110000          0.307474E-02
      0.115000          0.274172E-02
      0.120000          0.244140E-02
      0.125000          0.217131E-02
      0.130000          0.192907E-02
      0.135000          0.171245E-02
      0.140000          0.151937E-02
      0.145000          0.134789E-02
      0.150000          0.119622E-02
      0.155000          0.106263E-02
      0.160000          0.945501E-03
      0.165000          0.843259E-03
      0.170000          0.754393E-03
      0.175000          0.677447E-03
      0.180000          0.611029E-03
      0.185000          0.553826E-03
      0.190000          0.504614E-03
      0.195000          0.462274E-03
      0.200000          0.425804E-03
      0.205000          0.394319E-03
      0.210000          0.367056E-03
      0.215000          0.343369E-03
      0.220000          0.322719E-03
      0.225000          0.304660E-03
      0.230000          0.288829E-03
      0.235000          0.274927E-03
      0.240000          0.262708E-03
      0.245000          0.251964E-03
      0.250000          0.242515E-03
      0.255000          0.234200E-03
      0.260000          0.226873E-03
      0.265000          0.220395E-03
      0.270000          0.214638E-03
      0.275000          0.209475E-03
      0.280000          0.204793E-03
      0.285000          0.200481E-03
      0.290000          0.196441E-03
      0.295000          0.192587E-03
      0.300000          0.188842E-03
      0.305000          0.185148E-03
      0.310000          0.181458E-03
      0.315000          0.177742E-03
      0.320000          0.173984E-03
      0.325000          0.170180E-03
      0.330000          0.166341E-03
      0.335000          0.162482E-03
      0.340000          0.158630E-03
      0.345000          0.154812E-03
      0.350000          0.151057E-03
      0.355000          0.147393E-03
      0.360000          0.143842E-03
      0.365000          0.140424E-03
      0.370000          0.137150E-03
      0.375000          0.134028E-03
      0.380000          0.131058E-03
      0.385000          0.128236E-03
      0.390000          0.125556E-03
      0.395000          0.123009E-03
      0.400000          0.120584E-03
      0.405000          0.118271E-03
      0.410000          0.116059E-03
      0.415000          0.113940E-03
      0.420000          0.111904E-03
      0.425000          0.109941E-03
      0.430000          0.108044E-03
      0.435000          0.106203E-03
      0.440000          0.104409E-03
      0.445000          0.102655E-03
      0.450000          0.100934E-03
      0.455000          0.992389E-04
      0.460000          0.975686E-04
      0.465000          0.959237E-04
      0.470000          0.943093E-04
      0.475000          0.927348E-04
      0.480000          0.912135E-04
      0.485000          0.897619E-04
      0.490000          0.883982E-04
      0.495000          0.871414E-04
      0.500000          0.860084E-04
