 I_abs(s)[cm^-1]/c[mg/ml]
       0.00000          0.141068E-01
      0.500000E-02      0.140323E-01
      0.100000E-01      0.138112E-01
      0.150000E-01      0.134506E-01
      0.200000E-01      0.129617E-01
      0.250000E-01      0.123595E-01
      0.300000E-01      0.116618E-01
      0.350000E-01      0.108886E-01
      0.400000E-01      0.100612E-01
      0.450000E-01      0.920073E-02
      0.500000E-01      0.832798E-02
      0.550000E-01      0.746212E-02
      0.600000E-01      0.662025E-02
      0.650000E-01      0.581692E-02
      0.700000E-01      0.506379E-02
      0.750000E-01      0.436956E-02
      0.800000E-01      0.373999E-02
      0.850000E-01      0.317810E-02
      0.900000E-01      0.268448E-02
      0.950000E-01      0.225763E-02
      0.100000          0.189441E-02
      0.105000          0.159042E-02
      0.110000          0.134043E-02
      0.115000          0.113871E-02
      0.120000          0.979339E-03
      0.125000          0.856460E-03
      0.130000          0.764426E-03
      0.135000          0.697949E-03
      0.140000          0.652168E-03
      0.145000          0.622691E-03
      0.150000          0.605613E-03
      0.155000          0.597515E-03
      0.160000          0.595455E-03
      0.165000          0.596957E-03
      0.170000          0.599992E-03
      0.175000          0.602963E-03
      0.180000          0.604686E-03
      0.185000          0.604358E-03
      0.190000          0.601527E-03
      0.195000          0.596045E-03
      0.200000          0.588020E-03
      0.205000          0.577754E-03
      0.210000          0.565677E-03
      0.215000          0.552287E-03
      0.220000          0.538086E-03
      0.225000          0.523528E-03
      0.230000          0.508975E-03
      0.235000          0.494671E-03
      0.240000          0.480732E-03
      0.245000          0.467147E-03
      0.250000          0.453798E-03
      0.255000          0.440485E-03
      0.260000          0.426964E-03
      0.265000          0.412983E-03
      0.270000          0.398319E-03
      0.275000          0.382813E-03
      0.280000          0.366387E-03
      0.285000          0.349061E-03
      0.290000          0.330958E-03
      0.295000          0.312290E-03
      0.300000          0.293351E-03
      0.305000          0.274486E-03
      0.310000          0.256071E-03
      0.315000          0.238478E-03
      0.320000          0.222057E-03
      0.325000          0.207105E-03
      0.330000          0.193853E-03
      0.335000          0.182452E-03
      0.340000          0.172966E-03
      0.345000          0.165377E-03
      0.350000          0.159591E-03
      0.355000          0.155443E-03
      0.360000          0.152720E-03
      0.365000          0.151173E-03
      0.370000          0.150534E-03
      0.375000          0.150532E-03
      0.380000          0.150909E-03
      0.385000          0.151433E-03
      0.390000          0.151903E-03
      0.395000          0.152162E-03
      0.400000          0.152094E-03
      0.405000          0.151624E-03
      0.410000          0.150721E-03
      0.415000          0.149387E-03
      0.420000          0.147653E-03
      0.425000          0.145570E-03
      0.430000          0.143206E-03
      0.435000          0.140630E-03
      0.440000          0.137912E-03
      0.445000          0.135115E-03
      0.450000          0.132290E-03
      0.455000          0.129477E-03
      0.460000          0.126699E-03
      0.465000          0.123968E-03
      0.470000          0.121284E-03
      0.475000          0.118640E-03
      0.480000          0.116023E-03
      0.485000          0.113420E-03
      0.490000          0.110822E-03
      0.495000          0.108224E-03
      0.500000          0.105626E-03
