 I_abs(s)[cm^-1]/c[mg/ml]
       0.00000          0.145873E-01
      0.500000E-02      0.145230E-01
      0.100000E-01      0.143318E-01
      0.150000E-01      0.140184E-01
      0.200000E-01      0.135904E-01
      0.250000E-01      0.130582E-01
      0.300000E-01      0.124345E-01
      0.350000E-01      0.117336E-01
      0.400000E-01      0.109715E-01
      0.450000E-01      0.101646E-01
      0.500000E-01      0.932983E-02
      0.550000E-01      0.848363E-02
      0.600000E-01      0.764170E-02
      0.650000E-01      0.681849E-02
      0.700000E-01      0.602683E-02
      0.750000E-01      0.527760E-02
      0.800000E-01      0.457962E-02
      0.850000E-01      0.393948E-02
      0.900000E-01      0.336156E-02
      0.950000E-01      0.284809E-02
      0.100000          0.239932E-02
      0.105000          0.201373E-02
      0.110000          0.168829E-02
      0.115000          0.141873E-02
      0.120000          0.119989E-02
      0.125000          0.102601E-02
      0.130000          0.891015E-03
      0.135000          0.788787E-03
      0.140000          0.713409E-03
      0.145000          0.659341E-03
      0.150000          0.621573E-03
      0.155000          0.595722E-03
      0.160000          0.578083E-03
      0.165000          0.565646E-03
      0.170000          0.556070E-03
      0.175000          0.547636E-03
      0.180000          0.539175E-03
      0.185000          0.529978E-03
      0.190000          0.519713E-03
      0.195000          0.508324E-03
      0.200000          0.495950E-03
      0.205000          0.482848E-03
      0.210000          0.469321E-03
      0.215000          0.455676E-03
      0.220000          0.442180E-03
      0.225000          0.429040E-03
      0.230000          0.416391E-03
      0.235000          0.404294E-03
      0.240000          0.392747E-03
      0.245000          0.381692E-03
      0.250000          0.371037E-03
      0.255000          0.360668E-03
      0.260000          0.350468E-03
      0.265000          0.340328E-03
      0.270000          0.330161E-03
      0.275000          0.319910E-03
      0.280000          0.309545E-03
      0.285000          0.299072E-03
      0.290000          0.288525E-03
      0.295000          0.277961E-03
      0.300000          0.267456E-03
      0.305000          0.257099E-03
      0.310000          0.246982E-03
      0.315000          0.237193E-03
      0.320000          0.227815E-03
      0.325000          0.218918E-03
      0.330000          0.210556E-03
      0.335000          0.202767E-03
      0.340000          0.195572E-03
      0.345000          0.188975E-03
      0.350000          0.182966E-03
      0.355000          0.177521E-03
      0.360000          0.172606E-03
      0.365000          0.168181E-03
      0.370000          0.164198E-03
      0.375000          0.160608E-03
      0.380000          0.157359E-03
      0.385000          0.154401E-03
      0.390000          0.151686E-03
      0.395000          0.149169E-03
      0.400000          0.146809E-03
      0.405000          0.144569E-03
      0.410000          0.142417E-03
      0.415000          0.140328E-03
      0.420000          0.138279E-03
      0.425000          0.136254E-03
      0.430000          0.134243E-03
      0.435000          0.132237E-03
      0.440000          0.130236E-03
      0.445000          0.128240E-03
      0.450000          0.126254E-03
      0.455000          0.124285E-03
      0.460000          0.122340E-03
      0.465000          0.120429E-03
      0.470000          0.118560E-03
      0.475000          0.116742E-03
      0.480000          0.114981E-03
      0.485000          0.113282E-03
      0.490000          0.111646E-03
      0.495000          0.110072E-03
      0.500000          0.108557E-03
