 I_abs(s)[cm^-1]/c[mg/ml]
       0.00000          0.143657E-01
      0.500000E-02      0.142954E-01
      0.100000E-01      0.140867E-01
      0.150000E-01      0.137461E-01
      0.200000E-01      0.132841E-01
      0.250000E-01      0.127145E-01
      0.300000E-01      0.120541E-01
      0.350000E-01      0.113215E-01
      0.400000E-01      0.105365E-01
      0.450000E-01      0.971936E-02
      0.500000E-01      0.888951E-02
      0.550000E-01      0.806520E-02
      0.600000E-01      0.726269E-02
      0.650000E-01      0.649581E-02
      0.700000E-01      0.577563E-02
      0.750000E-01      0.511028E-02
      0.800000E-01      0.450502E-02
      0.850000E-01      0.396234E-02
      0.900000E-01      0.348226E-02
      0.950000E-01      0.306276E-02
      0.100000          0.270012E-02
      0.105000          0.238946E-02
      0.110000          0.212516E-02
      0.115000          0.190125E-02
      0.120000          0.171183E-02
      0.125000          0.155130E-02
      0.130000          0.141461E-02
      0.135000          0.129736E-02
      0.140000          0.119588E-02
      0.145000          0.110721E-02
      0.150000          0.102902E-02
      0.155000          0.959587E-03
      0.160000          0.897594E-03
      0.165000          0.842076E-03
      0.170000          0.792289E-03
      0.175000          0.747619E-03
      0.180000          0.707506E-03
      0.185000          0.671406E-03
      0.190000          0.638755E-03
      0.195000          0.608976E-03
      0.200000          0.581483E-03
      0.205000          0.555710E-03
      0.210000          0.531135E-03
      0.215000          0.507310E-03
      0.220000          0.483884E-03
      0.225000          0.460616E-03
      0.230000          0.437382E-03
      0.235000          0.414173E-03
      0.240000          0.391081E-03
      0.245000          0.368278E-03
      0.250000          0.345995E-03
      0.255000          0.324494E-03
      0.260000          0.304040E-03
      0.265000          0.284880E-03
      0.270000          0.267221E-03
      0.275000          0.251217E-03
      0.280000          0.236960E-03
      0.285000          0.224473E-03
      0.290000          0.213717E-03
      0.295000          0.204596E-03
      0.300000          0.196962E-03
      0.305000          0.190630E-03
      0.310000          0.185392E-03
      0.315000          0.181023E-03
      0.320000          0.177302E-03
      0.325000          0.174015E-03
      0.330000          0.170966E-03
      0.335000          0.167988E-03
      0.340000          0.164942E-03
      0.345000          0.161727E-03
      0.350000          0.158275E-03
      0.355000          0.154556E-03
      0.360000          0.150571E-03
      0.365000          0.146352E-03
      0.370000          0.141955E-03
      0.375000          0.137458E-03
      0.380000          0.132948E-03
      0.385000          0.128519E-03
      0.390000          0.124267E-03
      0.395000          0.120278E-03
      0.400000          0.116627E-03
      0.405000          0.113372E-03
      0.410000          0.110551E-03
      0.415000          0.108182E-03
      0.420000          0.106261E-03
      0.425000          0.104764E-03
      0.430000          0.103649E-03
      0.435000          0.102863E-03
      0.440000          0.102341E-03
      0.445000          0.102016E-03
      0.450000          0.101818E-03
      0.455000          0.101684E-03
      0.460000          0.101557E-03
      0.465000          0.101388E-03
      0.470000          0.101139E-03
      0.475000          0.100786E-03
      0.480000          0.100312E-03
      0.485000          0.997109E-04
      0.490000          0.989833E-04
      0.495000          0.981359E-04
      0.500000          0.971790E-04
