 I_abs(s)[cm^-1]/c[mg/ml]
       0.00000          0.142949E-01
      0.500000E-02      0.142300E-01
      0.100000E-01      0.140370E-01
      0.150000E-01      0.137211E-01
      0.200000E-01      0.132904E-01
      0.250000E-01      0.127558E-01
      0.300000E-01      0.121309E-01
      0.350000E-01      0.114308E-01
      0.400000E-01      0.106720E-01
      0.450000E-01      0.987148E-02
      0.500000E-01      0.904647E-02
      0.550000E-01      0.821351E-02
      0.600000E-01      0.738809E-02
      0.650000E-01      0.658419E-02
      0.700000E-01      0.581394E-02
      0.750000E-01      0.508737E-02
      0.800000E-01      0.441227E-02
      0.850000E-01      0.379420E-02
      0.900000E-01      0.323652E-02
      0.950000E-01      0.274058E-02
      0.100000          0.230591E-02
      0.105000          0.193052E-02
      0.110000          0.161120E-02
      0.115000          0.134379E-02
      0.120000          0.112354E-02
      0.125000          0.945335E-03
      0.130000          0.803971E-03
      0.135000          0.694347E-03
      0.140000          0.611624E-03
      0.145000          0.551334E-03
      0.150000          0.509447E-03
      0.155000          0.482400E-03
      0.160000          0.467092E-03
      0.165000          0.460863E-03
      0.170000          0.461444E-03
      0.175000          0.466911E-03
      0.180000          0.475637E-03
      0.185000          0.486235E-03
      0.190000          0.497529E-03
      0.195000          0.508514E-03
      0.200000          0.518341E-03
      0.205000          0.526303E-03
      0.210000          0.531831E-03
      0.215000          0.534492E-03
      0.220000          0.533993E-03
      0.225000          0.530184E-03
      0.230000          0.523050E-03
      0.235000          0.512710E-03
      0.240000          0.499404E-03
      0.245000          0.483475E-03
      0.250000          0.465347E-03
      0.255000          0.445501E-03
      0.260000          0.424448E-03
      0.265000          0.402700E-03
      0.270000          0.380743E-03
      0.275000          0.359019E-03
      0.280000          0.337908E-03
      0.285000          0.317711E-03
      0.290000          0.298654E-03
      0.295000          0.280879E-03
      0.300000          0.264456E-03
      0.305000          0.249390E-03
      0.310000          0.235635E-03
      0.315000          0.223111E-03
      0.320000          0.211713E-03
      0.325000          0.201332E-03
      0.330000          0.191861E-03
      0.335000          0.183207E-03
      0.340000          0.175297E-03
      0.345000          0.168079E-03
      0.350000          0.161521E-03
      0.355000          0.155609E-03
      0.360000          0.150341E-03
      0.365000          0.145722E-03
      0.370000          0.141753E-03
      0.375000          0.138431E-03
      0.380000          0.135739E-03
      0.385000          0.133644E-03
      0.390000          0.132096E-03
      0.395000          0.131027E-03
      0.400000          0.130353E-03
      0.405000          0.129980E-03
      0.410000          0.129806E-03
      0.415000          0.129727E-03
      0.420000          0.129644E-03
      0.425000          0.129466E-03
      0.430000          0.129116E-03
      0.435000          0.128534E-03
      0.440000          0.127679E-03
      0.445000          0.126531E-03
      0.450000          0.125088E-03
      0.455000          0.123365E-03
      0.460000          0.121392E-03
      0.465000          0.119211E-03
      0.470000          0.116869E-03
      0.475000          0.114418E-03
      0.480000          0.111908E-03
      0.485000          0.109387E-03
      0.490000          0.106896E-03
      0.495000          0.104468E-03
      0.500000          0.102127E-03
