 I_abs(s)[cm^-1]/c[mg/ml]
       0.00000          0.143736E-01
      0.500000E-02      0.143179E-01
      0.100000E-01      0.141519E-01
      0.150000E-01      0.138794E-01
      0.200000E-01      0.135063E-01
      0.250000E-01      0.130408E-01
      0.300000E-01      0.124927E-01
      0.350000E-01      0.118737E-01
      0.400000E-01      0.111963E-01
      0.450000E-01      0.104739E-01
      0.500000E-01      0.972021E-02
      0.550000E-01      0.894896E-02
      0.600000E-01      0.817338E-02
      0.650000E-01      0.740590E-02
      0.700000E-01      0.665788E-02
      0.750000E-01      0.593930E-02
      0.800000E-01      0.525864E-02
      0.850000E-01      0.462267E-02
      0.900000E-01      0.403649E-02
      0.950000E-01      0.350345E-02
      0.100000          0.302527E-02
      0.105000          0.260213E-02
      0.110000          0.223285E-02
      0.115000          0.191508E-02
      0.120000          0.164552E-02
      0.125000          0.142011E-02
      0.130000          0.123432E-02
      0.135000          0.108334E-02
      0.140000          0.962258E-03
      0.145000          0.866289E-03
      0.150000          0.790884E-03
      0.155000          0.731864E-03
      0.160000          0.685506E-03
      0.165000          0.648592E-03
      0.170000          0.618430E-03
      0.175000          0.592855E-03
      0.180000          0.570196E-03
      0.185000          0.549233E-03
      0.190000          0.529140E-03
      0.195000          0.509415E-03
      0.200000          0.489818E-03
      0.205000          0.470297E-03
      0.210000          0.450930E-03
      0.215000          0.431870E-03
      0.220000          0.413295E-03
      0.225000          0.395378E-03
      0.230000          0.378258E-03
      0.235000          0.362029E-03
      0.240000          0.346733E-03
      0.245000          0.332356E-03
      0.250000          0.318846E-03
      0.255000          0.306113E-03
      0.260000          0.294048E-03
      0.265000          0.282538E-03
      0.270000          0.271471E-03
      0.275000          0.260756E-03
      0.280000          0.250322E-03
      0.285000          0.240130E-03
      0.290000          0.230169E-03
      0.295000          0.220455E-03
      0.300000          0.211033E-03
      0.305000          0.201961E-03
      0.310000          0.193312E-03
      0.315000          0.185160E-03
      0.320000          0.177577E-03
      0.325000          0.170623E-03
      0.330000          0.164342E-03
      0.335000          0.158757E-03
      0.340000          0.153870E-03
      0.345000          0.149663E-03
      0.350000          0.146093E-03
      0.355000          0.143102E-03
      0.360000          0.140617E-03
      0.365000          0.138558E-03
      0.370000          0.136838E-03
      0.375000          0.135373E-03
      0.380000          0.134085E-03
      0.385000          0.132905E-03
      0.390000          0.131778E-03
      0.395000          0.130660E-03
      0.400000          0.129526E-03
      0.405000          0.128364E-03
      0.410000          0.127176E-03
      0.415000          0.125976E-03
      0.420000          0.124785E-03
      0.425000          0.123632E-03
      0.430000          0.122545E-03
      0.435000          0.121552E-03
      0.440000          0.120679E-03
      0.445000          0.119942E-03
      0.450000          0.119353E-03
      0.455000          0.118911E-03
      0.460000          0.118607E-03
      0.465000          0.118423E-03
      0.470000          0.118332E-03
      0.475000          0.118301E-03
      0.480000          0.118292E-03
      0.485000          0.118266E-03
      0.490000          0.118182E-03
      0.495000          0.118003E-03
      0.500000          0.117695E-03
