 I_abs(s)[cm^-1]/c[mg/ml]
       0.00000          0.145317E-01
      0.500000E-02      0.144820E-01
      0.100000E-01      0.143339E-01
      0.150000E-01      0.140902E-01
      0.200000E-01      0.137556E-01
      0.250000E-01      0.133367E-01
      0.300000E-01      0.128412E-01
      0.350000E-01      0.122784E-01
      0.400000E-01      0.116584E-01
      0.450000E-01      0.109923E-01
      0.500000E-01      0.102914E-01
      0.550000E-01      0.956730E-02
      0.600000E-01      0.883133E-02
      0.650000E-01      0.809448E-02
      0.700000E-01      0.736704E-02
      0.750000E-01      0.665842E-02
      0.800000E-01      0.597694E-02
      0.850000E-01      0.532972E-02
      0.900000E-01      0.472257E-02
      0.950000E-01      0.415995E-02
      0.100000          0.364495E-02
      0.105000          0.317935E-02
      0.110000          0.276369E-02
      0.115000          0.239735E-02
      0.120000          0.207872E-02
      0.125000          0.180531E-02
      0.130000          0.157395E-02
      0.135000          0.138095E-02
      0.140000          0.122224E-02
      0.145000          0.109359E-02
      0.150000          0.990679E-03
      0.155000          0.909310E-03
      0.160000          0.845469E-03
      0.165000          0.795443E-03
      0.170000          0.755884E-03
      0.175000          0.723856E-03
      0.180000          0.696867E-03
      0.185000          0.672873E-03
      0.190000          0.650270E-03
      0.195000          0.627864E-03
      0.200000          0.604843E-03
      0.205000          0.580722E-03
      0.210000          0.555301E-03
      0.215000          0.528602E-03
      0.220000          0.500824E-03
      0.225000          0.472286E-03
      0.230000          0.443382E-03
      0.235000          0.414538E-03
      0.240000          0.386181E-03
      0.245000          0.358705E-03
      0.250000          0.332455E-03
      0.255000          0.307710E-03
      0.260000          0.284679E-03
      0.265000          0.263495E-03
      0.270000          0.244223E-03
      0.275000          0.226863E-03
      0.280000          0.211358E-03
      0.285000          0.197611E-03
      0.290000          0.185490E-03
      0.295000          0.174843E-03
      0.300000          0.165509E-03
      0.305000          0.157324E-03
      0.310000          0.150135E-03
      0.315000          0.143798E-03
      0.320000          0.138189E-03
      0.325000          0.133202E-03
      0.330000          0.128752E-03
      0.335000          0.124771E-03
      0.340000          0.121208E-03
      0.345000          0.118026E-03
      0.350000          0.115199E-03
      0.355000          0.112705E-03
      0.360000          0.110527E-03
      0.365000          0.108649E-03
      0.370000          0.107049E-03
      0.375000          0.105705E-03
      0.380000          0.104586E-03
      0.385000          0.103657E-03
      0.390000          0.102878E-03
      0.395000          0.102204E-03
      0.400000          0.101587E-03
      0.405000          0.100979E-03
      0.410000          0.100333E-03
      0.415000          0.996046E-04
      0.420000          0.987563E-04
      0.425000          0.977569E-04
      0.430000          0.965845E-04
      0.435000          0.952267E-04
      0.440000          0.936817E-04
      0.445000          0.919580E-04
      0.450000          0.900737E-04
      0.455000          0.880560E-04
      0.460000          0.859395E-04
      0.465000          0.837643E-04
      0.470000          0.815745E-04
      0.475000          0.794154E-04
      0.480000          0.773321E-04
      0.485000          0.753669E-04
      0.490000          0.735577E-04
      0.495000          0.719361E-04
      0.500000          0.705267E-04
