 I_abs(s)[cm^-1]/c[mg/ml]
       0.00000          0.143027E-01
      0.500000E-02      0.142310E-01
      0.100000E-01      0.140179E-01
      0.150000E-01      0.136701E-01
      0.200000E-01      0.131980E-01
      0.250000E-01      0.126155E-01
      0.300000E-01      0.119396E-01
      0.350000E-01      0.111890E-01
      0.400000E-01      0.103838E-01
      0.450000E-01      0.954434E-02
      0.500000E-01      0.869048E-02
      0.550000E-01      0.784089E-02
      0.600000E-01      0.701243E-02
      0.650000E-01      0.621959E-02
      0.700000E-01      0.547424E-02
      0.750000E-01      0.478543E-02
      0.800000E-01      0.415937E-02
      0.850000E-01      0.359959E-02
      0.900000E-01      0.310712E-02
      0.950000E-01      0.268081E-02
      0.100000          0.231773E-02
      0.105000          0.201353E-02
      0.110000          0.176282E-02
      0.115000          0.155956E-02
      0.120000          0.139740E-02
      0.125000          0.126995E-02
      0.130000          0.117099E-02
      0.135000          0.109471E-02
      0.140000          0.103581E-02
      0.145000          0.989580E-03
      0.150000          0.951964E-03
      0.155000          0.919586E-03
      0.160000          0.889738E-03
      0.165000          0.860351E-03
      0.170000          0.829964E-03
      0.175000          0.797662E-03
      0.180000          0.763016E-03
      0.185000          0.726011E-03
      0.190000          0.686967E-03
      0.195000          0.646461E-03
      0.200000          0.605238E-03
      0.205000          0.564135E-03
      0.210000          0.524004E-03
      0.215000          0.485647E-03
      0.220000          0.449758E-03
      0.225000          0.416881E-03
      0.230000          0.387389E-03
      0.235000          0.361469E-03
      0.240000          0.339132E-03
      0.245000          0.320224E-03
      0.250000          0.304463E-03
      0.255000          0.291467E-03
      0.260000          0.280799E-03
      0.265000          0.271999E-03
      0.270000          0.264622E-03
      0.275000          0.258266E-03
      0.280000          0.252588E-03
      0.285000          0.247320E-03
      0.290000          0.242266E-03
      0.295000          0.237303E-03
      0.300000          0.232371E-03
      0.305000          0.227452E-03
      0.310000          0.222566E-03
      0.315000          0.217747E-03
      0.320000          0.213036E-03
      0.325000          0.208468E-03
      0.330000          0.204068E-03
      0.335000          0.199850E-03
      0.340000          0.195810E-03
      0.345000          0.191936E-03
      0.350000          0.188209E-03
      0.355000          0.184605E-03
      0.360000          0.181100E-03
      0.365000          0.177674E-03
      0.370000          0.174309E-03
      0.375000          0.170993E-03
      0.380000          0.167717E-03
      0.385000          0.164471E-03
      0.390000          0.161248E-03
      0.395000          0.158038E-03
      0.400000          0.154828E-03
      0.405000          0.151604E-03
      0.410000          0.148351E-03
      0.415000          0.145054E-03
      0.420000          0.141699E-03
      0.425000          0.138280E-03
      0.430000          0.134795E-03
      0.435000          0.131250E-03
      0.440000          0.127663E-03
      0.445000          0.124056E-03
      0.450000          0.120458E-03
      0.455000          0.116904E-03
      0.460000          0.113429E-03
      0.465000          0.110065E-03
      0.470000          0.106841E-03
      0.475000          0.103778E-03
      0.480000          0.100890E-03
      0.485000          0.981804E-04
      0.490000          0.956460E-04
      0.495000          0.932760E-04
      0.500000          0.910552E-04
