 I_abs(s)[cm^-1]/c[mg/ml]
       0.00000          0.144288E-01
      0.500000E-02      0.143568E-01
      0.100000E-01      0.141432E-01
      0.150000E-01      0.137947E-01
      0.200000E-01      0.133223E-01
      0.250000E-01      0.127406E-01
      0.300000E-01      0.120670E-01
      0.350000E-01      0.113209E-01
      0.400000E-01      0.105228E-01
      0.450000E-01      0.969312E-02
      0.500000E-01      0.885178E-02
      0.550000E-01      0.801708E-02
      0.600000E-01      0.720517E-02
      0.650000E-01      0.642962E-02
      0.700000E-01      0.570111E-02
      0.750000E-01      0.502736E-02
      0.800000E-01      0.441322E-02
      0.850000E-01      0.386085E-02
      0.900000E-01      0.337010E-02
      0.950000E-01      0.293891E-02
      0.100000          0.256373E-02
      0.105000          0.224002E-02
      0.110000          0.196259E-02
      0.115000          0.172606E-02
      0.120000          0.152509E-02
      0.125000          0.135461E-02
      0.130000          0.121003E-02
      0.135000          0.108725E-02
      0.140000          0.982699E-03
      0.145000          0.893354E-03
      0.150000          0.816655E-03
      0.155000          0.750454E-03
      0.160000          0.692954E-03
      0.165000          0.642648E-03
      0.170000          0.598269E-03
      0.175000          0.558759E-03
      0.180000          0.523245E-03
      0.185000          0.491024E-03
      0.190000          0.461555E-03
      0.195000          0.434453E-03
      0.200000          0.409471E-03
      0.205000          0.386490E-03
      0.210000          0.365490E-03
      0.215000          0.346524E-03
      0.220000          0.329678E-03
      0.225000          0.315039E-03
      0.230000          0.302660E-03
      0.235000          0.292533E-03
      0.240000          0.284565E-03
      0.245000          0.278575E-03
      0.250000          0.274290E-03
      0.255000          0.271362E-03
      0.260000          0.269386E-03
      0.265000          0.267932E-03
      0.270000          0.266571E-03
      0.275000          0.264912E-03
      0.280000          0.262623E-03
      0.285000          0.259458E-03
      0.290000          0.255266E-03
      0.295000          0.249999E-03
      0.300000          0.243704E-03
      0.305000          0.236513E-03
      0.310000          0.228624E-03
      0.315000          0.220279E-03
      0.320000          0.211740E-03
      0.325000          0.203267E-03
      0.330000          0.195095E-03
      0.335000          0.187423E-03
      0.340000          0.180399E-03
      0.345000          0.174120E-03
      0.350000          0.168627E-03
      0.355000          0.163915E-03
      0.360000          0.159938E-03
      0.365000          0.156620E-03
      0.370000          0.153867E-03
      0.375000          0.151578E-03
      0.380000          0.149650E-03
      0.385000          0.147992E-03
      0.390000          0.146522E-03
      0.395000          0.145174E-03
      0.400000          0.143898E-03
      0.405000          0.142655E-03
      0.410000          0.141417E-03
      0.415000          0.140164E-03
      0.420000          0.138878E-03
      0.425000          0.137545E-03
      0.430000          0.136150E-03
      0.435000          0.134678E-03
      0.440000          0.133111E-03
      0.445000          0.131437E-03
      0.450000          0.129642E-03
      0.455000          0.127720E-03
      0.460000          0.125669E-03
      0.465000          0.123496E-03
      0.470000          0.121216E-03
      0.475000          0.118852E-03
      0.480000          0.116435E-03
      0.485000          0.114001E-03
      0.490000          0.111588E-03
      0.495000          0.109237E-03
      0.500000          0.106983E-03
