 I_abs(s)[cm^-1]/c[mg/ml]
       0.00000          0.146748E-01
      0.500000E-02      0.146155E-01
      0.100000E-01      0.144394E-01
      0.150000E-01      0.141513E-01
      0.200000E-01      0.137591E-01
      0.250000E-01      0.132731E-01
      0.300000E-01      0.127060E-01
      0.350000E-01      0.120719E-01
      0.400000E-01      0.113858E-01
      0.450000E-01      0.106631E-01
      0.500000E-01      0.991897E-02
      0.550000E-01      0.916768E-02
      0.600000E-01      0.842225E-02
      0.650000E-01      0.769405E-02
      0.700000E-01      0.699261E-02
      0.750000E-01      0.632546E-02
      0.800000E-01      0.569815E-02
      0.850000E-01      0.511432E-02
      0.900000E-01      0.457591E-02
      0.950000E-01      0.408334E-02
      0.100000          0.363584E-02
      0.105000          0.323169E-02
      0.110000          0.286855E-02
      0.115000          0.254363E-02
      0.120000          0.225399E-02
      0.125000          0.199665E-02
      0.130000          0.176874E-02
      0.135000          0.156759E-02
      0.140000          0.139072E-02
      0.145000          0.123588E-02
      0.150000          0.110100E-02
      0.155000          0.984189E-03
      0.160000          0.883678E-03
      0.165000          0.797775E-03
      0.170000          0.724849E-03
      0.175000          0.663314E-03
      0.180000          0.611622E-03
      0.185000          0.568278E-03
      0.190000          0.531853E-03
      0.195000          0.501016E-03
      0.200000          0.474551E-03
      0.205000          0.451390E-03
      0.210000          0.430627E-03
      0.215000          0.411531E-03
      0.220000          0.393544E-03
      0.225000          0.376277E-03
      0.230000          0.359491E-03
      0.235000          0.343074E-03
      0.240000          0.327013E-03
      0.245000          0.311366E-03
      0.250000          0.296229E-03
      0.255000          0.281714E-03
      0.260000          0.267923E-03
      0.265000          0.254938E-03
      0.270000          0.242803E-03
      0.275000          0.231529E-03
      0.280000          0.221090E-03
      0.285000          0.211430E-03
      0.290000          0.202474E-03
      0.295000          0.194136E-03
      0.300000          0.186328E-03
      0.305000          0.178973E-03
      0.310000          0.172008E-03
      0.315000          0.165390E-03
      0.320000          0.159101E-03
      0.325000          0.153142E-03
      0.330000          0.147534E-03
      0.335000          0.142313E-03
      0.340000          0.137521E-03
      0.345000          0.133203E-03
      0.350000          0.129403E-03
      0.355000          0.126152E-03
      0.360000          0.123469E-03
      0.365000          0.121358E-03
      0.370000          0.119803E-03
      0.375000          0.118773E-03
      0.380000          0.118217E-03
      0.385000          0.118071E-03
      0.390000          0.118263E-03
      0.395000          0.118709E-03
      0.400000          0.119323E-03
      0.405000          0.120022E-03
      0.410000          0.120724E-03
      0.415000          0.121355E-03
      0.420000          0.121850E-03
      0.425000          0.122158E-03
      0.430000          0.122237E-03
      0.435000          0.122060E-03
      0.440000          0.121613E-03
      0.445000          0.120893E-03
      0.450000          0.119908E-03
      0.455000          0.118674E-03
      0.460000          0.117215E-03
      0.465000          0.115560E-03
      0.470000          0.113740E-03
      0.475000          0.111789E-03
      0.480000          0.109738E-03
      0.485000          0.107619E-03
      0.490000          0.105459E-03
      0.495000          0.103281E-03
      0.500000          0.101105E-03
