 I_abs(s)[cm^-1]/c[mg/ml]
       0.00000          0.145317E-01
      0.500000E-02      0.144759E-01
      0.100000E-01      0.143096E-01
      0.150000E-01      0.140366E-01
      0.200000E-01      0.136627E-01
      0.250000E-01      0.131962E-01
      0.300000E-01      0.126468E-01
      0.350000E-01      0.120258E-01
      0.400000E-01      0.113459E-01
      0.450000E-01      0.106200E-01
      0.500000E-01      0.986168E-02
      0.550000E-01      0.908423E-02
      0.600000E-01      0.830053E-02
      0.650000E-01      0.752263E-02
      0.700000E-01      0.676150E-02
      0.750000E-01      0.602683E-02
      0.800000E-01      0.532684E-02
      0.850000E-01      0.466818E-02
      0.900000E-01      0.405597E-02
      0.950000E-01      0.349376E-02
      0.100000          0.298362E-02
      0.105000          0.252630E-02
      0.110000          0.212134E-02
      0.115000          0.176725E-02
      0.120000          0.146173E-02
      0.125000          0.120179E-02
      0.130000          0.984001E-03
      0.135000          0.804601E-03
      0.140000          0.659677E-03
      0.145000          0.545284E-03
      0.150000          0.457545E-03
      0.155000          0.392740E-03
      0.160000          0.347362E-03
      0.165000          0.318159E-03
      0.170000          0.302160E-03
      0.175000          0.296686E-03
      0.180000          0.299348E-03
      0.185000          0.308040E-03
      0.190000          0.320929E-03
      0.195000          0.336436E-03
      0.200000          0.353219E-03
      0.205000          0.370159E-03
      0.210000          0.386338E-03
      0.215000          0.401026E-03
      0.220000          0.413662E-03
      0.225000          0.423842E-03
      0.230000          0.431303E-03
      0.235000          0.435906E-03
      0.240000          0.437623E-03
      0.245000          0.436521E-03
      0.250000          0.432747E-03
      0.255000          0.426511E-03
      0.260000          0.418074E-03
      0.265000          0.407727E-03
      0.270000          0.395783E-03
      0.275000          0.382562E-03
      0.280000          0.368380E-03
      0.285000          0.353539E-03
      0.290000          0.338320E-03
      0.295000          0.322978E-03
      0.300000          0.307738E-03
      0.305000          0.292793E-03
      0.310000          0.278303E-03
      0.315000          0.264399E-03
      0.320000          0.251182E-03
      0.325000          0.238725E-03
      0.330000          0.227081E-03
      0.335000          0.216278E-03
      0.340000          0.206330E-03
      0.345000          0.197234E-03
      0.350000          0.188974E-03
      0.355000          0.181524E-03
      0.360000          0.174847E-03
      0.365000          0.168900E-03
      0.370000          0.163630E-03
      0.375000          0.158978E-03
      0.380000          0.154881E-03
      0.385000          0.151269E-03
      0.390000          0.148071E-03
      0.395000          0.145211E-03
      0.400000          0.142616E-03
      0.405000          0.140211E-03
      0.410000          0.137927E-03
      0.415000          0.135698E-03
      0.420000          0.133466E-03
      0.425000          0.131183E-03
      0.430000          0.128811E-03
      0.435000          0.126322E-03
      0.440000          0.123701E-03
      0.445000          0.120946E-03
      0.450000          0.118065E-03
      0.455000          0.115078E-03
      0.460000          0.112014E-03
      0.465000          0.108907E-03
      0.470000          0.105800E-03
      0.475000          0.102735E-03
      0.480000          0.997550E-04
      0.485000          0.969009E-04
      0.490000          0.942089E-04
      0.495000          0.917089E-04
      0.500000          0.894231E-04
