 I_abs(s)[cm^-1]/c[mg/ml]
       0.00000          0.138986E-01
      0.500000E-02      0.138294E-01
      0.100000E-01      0.136239E-01
      0.150000E-01      0.132882E-01
      0.200000E-01      0.128324E-01
      0.250000E-01      0.122697E-01
      0.300000E-01      0.116161E-01
      0.350000E-01      0.108894E-01
      0.400000E-01      0.101087E-01
      0.450000E-01      0.929332E-02
      0.500000E-01      0.846216E-02
      0.550000E-01      0.763303E-02
      0.600000E-01      0.682204E-02
      0.650000E-01      0.604317E-02
      0.700000E-01      0.530799E-02
      0.750000E-01      0.462549E-02
      0.800000E-01      0.400211E-02
      0.850000E-01      0.344178E-02
      0.900000E-01      0.294617E-02
      0.950000E-01      0.251495E-02
      0.100000          0.214606E-02
      0.105000          0.183609E-02
      0.110000          0.158057E-02
      0.115000          0.137430E-02
      0.120000          0.121158E-02
      0.125000          0.108652E-02
      0.130000          0.993208E-03
      0.135000          0.925891E-03
      0.140000          0.879109E-03
      0.145000          0.847813E-03
      0.150000          0.827446E-03
      0.155000          0.814005E-03
      0.160000          0.804089E-03
      0.165000          0.794917E-03
      0.170000          0.784338E-03
      0.175000          0.770812E-03
      0.180000          0.753383E-03
      0.185000          0.731627E-03
      0.190000          0.705584E-03
      0.195000          0.675684E-03
      0.200000          0.642652E-03
      0.205000          0.607418E-03
      0.210000          0.571024E-03
      0.215000          0.534533E-03
      0.220000          0.498957E-03
      0.225000          0.465184E-03
      0.230000          0.433940E-03
      0.235000          0.405754E-03
      0.240000          0.380947E-03
      0.245000          0.359637E-03
      0.250000          0.341757E-03
      0.255000          0.327084E-03
      0.260000          0.315269E-03
      0.265000          0.305885E-03
      0.270000          0.298455E-03
      0.275000          0.292493E-03
      0.280000          0.287533E-03
      0.285000          0.283152E-03
      0.290000          0.278985E-03
      0.295000          0.274742E-03
      0.300000          0.270203E-03
      0.305000          0.265224E-03
      0.310000          0.259728E-03
      0.315000          0.253698E-03
      0.320000          0.247169E-03
      0.325000          0.240212E-03
      0.330000          0.232930E-03
      0.335000          0.225442E-03
      0.340000          0.217879E-03
      0.345000          0.210368E-03
      0.350000          0.203035E-03
      0.355000          0.195988E-03
      0.360000          0.189323E-03
      0.365000          0.183113E-03
      0.370000          0.177412E-03
      0.375000          0.172249E-03
      0.380000          0.167633E-03
      0.385000          0.163554E-03
      0.390000          0.159980E-03
      0.395000          0.156869E-03
      0.400000          0.154164E-03
      0.405000          0.151800E-03
      0.410000          0.149711E-03
      0.415000          0.147826E-03
      0.420000          0.146079E-03
      0.425000          0.144409E-03
      0.430000          0.142762E-03
      0.435000          0.141093E-03
      0.440000          0.139366E-03
      0.445000          0.137555E-03
      0.450000          0.135647E-03
      0.455000          0.133634E-03
      0.460000          0.131521E-03
      0.465000          0.129317E-03
      0.470000          0.127038E-03
      0.475000          0.124706E-03
      0.480000          0.122344E-03
      0.485000          0.119977E-03
      0.490000          0.117630E-03
      0.495000          0.115329E-03
      0.500000          0.113095E-03
