 I_abs(s)[cm^-1]/c[mg/ml]
       0.00000          0.137747E-01
      0.500000E-02      0.137074E-01
      0.100000E-01      0.135078E-01
      0.150000E-01      0.131821E-01
      0.200000E-01      0.127402E-01
      0.250000E-01      0.121954E-01
      0.300000E-01      0.115639E-01
      0.350000E-01      0.108636E-01
      0.400000E-01      0.101138E-01
      0.450000E-01      0.933393E-02
      0.500000E-01      0.854314E-02
      0.550000E-01      0.775934E-02
      0.600000E-01      0.699860E-02
      0.650000E-01      0.627466E-02
      0.700000E-01      0.559856E-02
      0.750000E-01      0.497845E-02
      0.800000E-01      0.441955E-02
      0.850000E-01      0.392427E-02
      0.900000E-01      0.349239E-02
      0.950000E-01      0.312148E-02
      0.100000          0.280726E-02
      0.105000          0.254409E-02
      0.110000          0.232541E-02
      0.115000          0.214424E-02
      0.120000          0.199354E-02
      0.125000          0.186660E-02
      0.130000          0.175733E-02
      0.135000          0.166043E-02
      0.140000          0.157151E-02
      0.145000          0.148717E-02
      0.150000          0.140497E-02
      0.155000          0.132334E-02
      0.160000          0.124145E-02
      0.165000          0.115914E-02
      0.170000          0.107669E-02
      0.175000          0.994729E-03
      0.180000          0.914065E-03
      0.185000          0.835587E-03
      0.190000          0.760158E-03
      0.195000          0.688551E-03
      0.200000          0.621402E-03
      0.205000          0.559183E-03
      0.210000          0.502203E-03
      0.215000          0.450612E-03
      0.220000          0.404419E-03
      0.225000          0.363517E-03
      0.230000          0.327707E-03
      0.235000          0.296718E-03
      0.240000          0.270231E-03
      0.245000          0.247895E-03
      0.250000          0.229336E-03
      0.255000          0.214169E-03
      0.260000          0.202002E-03
      0.265000          0.192441E-03
      0.270000          0.185098E-03
      0.275000          0.179588E-03
      0.280000          0.175543E-03
      0.285000          0.172612E-03
      0.290000          0.170468E-03
      0.295000          0.168822E-03
      0.300000          0.167421E-03
      0.305000          0.166060E-03
      0.310000          0.164583E-03
      0.315000          0.162889E-03
      0.320000          0.160924E-03
      0.325000          0.158687E-03
      0.330000          0.156216E-03
      0.335000          0.153585E-03
      0.340000          0.150891E-03
      0.345000          0.148248E-03
      0.350000          0.145770E-03
      0.355000          0.143567E-03
      0.360000          0.141733E-03
      0.365000          0.140339E-03
      0.370000          0.139427E-03
      0.375000          0.139009E-03
      0.380000          0.139067E-03
      0.385000          0.139548E-03
      0.390000          0.140377E-03
      0.395000          0.141453E-03
      0.400000          0.142660E-03
      0.405000          0.143871E-03
      0.410000          0.144955E-03
      0.415000          0.145786E-03
      0.420000          0.146244E-03
      0.425000          0.146227E-03
      0.430000          0.145651E-03
      0.435000          0.144456E-03
      0.440000          0.142608E-03
      0.445000          0.140102E-03
      0.450000          0.136959E-03
      0.455000          0.133228E-03
      0.460000          0.128984E-03
      0.465000          0.124324E-03
      0.470000          0.119362E-03
      0.475000          0.114228E-03
      0.480000          0.109055E-03
      0.485000          0.103981E-03
      0.490000          0.991382E-04
      0.495000          0.946480E-04
      0.500000          0.906152E-04
