 I_abs(s)[cm^-1]/c[mg/ml]
       0.00000          0.133832E-01
      0.500000E-02      0.132892E-01
      0.100000E-01      0.130119E-01
      0.150000E-01      0.125649E-01
      0.200000E-01      0.119698E-01
      0.250000E-01      0.112546E-01
      0.300000E-01      0.104514E-01
      0.350000E-01      0.959433E-02
      0.400000E-01      0.871737E-02
      0.450000E-01      0.785187E-02
      0.500000E-01      0.702492E-02
      0.550000E-01      0.625796E-02
      0.600000E-01      0.556598E-02
      0.650000E-01      0.495735E-02
      0.700000E-01      0.443413E-02
      0.750000E-01      0.399292E-02
      0.800000E-01      0.362597E-02
      0.850000E-01      0.332258E-02
      0.900000E-01      0.307048E-02
      0.950000E-01      0.285717E-02
      0.100000          0.267104E-02
      0.105000          0.250220E-02
      0.110000          0.234302E-02
      0.115000          0.218829E-02
      0.120000          0.203518E-02
      0.125000          0.188287E-02
      0.130000          0.173210E-02
      0.135000          0.158461E-02
      0.140000          0.144262E-02
      0.145000          0.130834E-02
      0.150000          0.118360E-02
      0.155000          0.106966E-02
      0.160000          0.967111E-03
      0.165000          0.875879E-03
      0.170000          0.795378E-03
      0.175000          0.724659E-03
      0.180000          0.662604E-03
      0.185000          0.608089E-03
      0.190000          0.560106E-03
      0.195000          0.517837E-03
      0.200000          0.480670E-03
      0.205000          0.448164E-03
      0.210000          0.419995E-03
      0.215000          0.395872E-03
      0.220000          0.375473E-03
      0.225000          0.358391E-03
      0.230000          0.344115E-03
      0.235000          0.332038E-03
      0.240000          0.321499E-03
      0.245000          0.311839E-03
      0.250000          0.302468E-03
      0.255000          0.292930E-03
      0.260000          0.282947E-03
      0.265000          0.272443E-03
      0.270000          0.261538E-03
      0.275000          0.250515E-03
      0.280000          0.239765E-03
      0.285000          0.229722E-03
      0.290000          0.220789E-03
      0.295000          0.213272E-03
      0.300000          0.207340E-03
      0.305000          0.202991E-03
      0.310000          0.200057E-03
      0.315000          0.198227E-03
      0.320000          0.197088E-03
      0.325000          0.196183E-03
      0.330000          0.195070E-03
      0.335000          0.193382E-03
      0.340000          0.190865E-03
      0.345000          0.187411E-03
      0.350000          0.183063E-03
      0.355000          0.178006E-03
      0.360000          0.172532E-03
      0.365000          0.167005E-03
      0.370000          0.161807E-03
      0.375000          0.157291E-03
      0.380000          0.153740E-03
      0.385000          0.151332E-03
      0.390000          0.150121E-03
      0.395000          0.150037E-03
      0.400000          0.150893E-03
      0.405000          0.152410E-03
      0.410000          0.154249E-03
      0.415000          0.156042E-03
      0.420000          0.157437E-03
      0.425000          0.158120E-03
      0.430000          0.157849E-03
      0.435000          0.156466E-03
      0.440000          0.153907E-03
      0.445000          0.150199E-03
      0.450000          0.145453E-03
      0.455000          0.139844E-03
      0.460000          0.133593E-03
      0.465000          0.126950E-03
      0.470000          0.120164E-03
      0.475000          0.113474E-03
      0.480000          0.107090E-03
      0.485000          0.101180E-03
      0.490000          0.958699E-04
      0.495000          0.912361E-04
      0.500000          0.873109E-04
