 I_abs(s)[cm^-1]/c[mg/ml]
       0.00000          0.144001E-01
      0.500000E-02      0.143330E-01
      0.100000E-01      0.141337E-01
      0.150000E-01      0.138086E-01
      0.200000E-01      0.133677E-01
      0.250000E-01      0.128244E-01
      0.300000E-01      0.121945E-01
      0.350000E-01      0.114959E-01
      0.400000E-01      0.107470E-01
      0.450000E-01      0.996662E-02
      0.500000E-01      0.917262E-02
      0.550000E-01      0.838152E-02
      0.600000E-01      0.760781E-02
      0.650000E-01      0.686361E-02
      0.700000E-01      0.615845E-02
      0.750000E-01      0.549921E-02
      0.800000E-01      0.489025E-02
      0.850000E-01      0.433360E-02
      0.900000E-01      0.382935E-02
      0.950000E-01      0.337598E-02
      0.100000          0.297084E-02
      0.105000          0.261048E-02
      0.110000          0.229104E-02
      0.115000          0.200859E-02
      0.120000          0.175931E-02
      0.125000          0.153967E-02
      0.130000          0.134656E-02
      0.135000          0.117724E-02
      0.140000          0.102941E-02
      0.145000          0.901078E-03
      0.150000          0.790529E-03
      0.155000          0.696241E-03
      0.160000          0.616801E-03
      0.165000          0.550855E-03
      0.170000          0.497063E-03
      0.175000          0.454078E-03
      0.180000          0.420541E-03
      0.185000          0.395095E-03
      0.190000          0.376405E-03
      0.195000          0.363183E-03
      0.200000          0.354217E-03
      0.205000          0.348395E-03
      0.210000          0.344725E-03
      0.215000          0.342348E-03
      0.220000          0.340544E-03
      0.225000          0.338732E-03
      0.230000          0.336465E-03
      0.235000          0.333420E-03
      0.240000          0.329390E-03
      0.245000          0.324269E-03
      0.250000          0.318042E-03
      0.255000          0.310766E-03
      0.260000          0.302562E-03
      0.265000          0.293599E-03
      0.270000          0.284079E-03
      0.275000          0.274224E-03
      0.280000          0.264262E-03
      0.285000          0.254412E-03
      0.290000          0.244873E-03
      0.295000          0.235810E-03
      0.300000          0.227354E-03
      0.305000          0.219587E-03
      0.310000          0.212548E-03
      0.315000          0.206235E-03
      0.320000          0.200606E-03
      0.325000          0.195592E-03
      0.330000          0.191105E-03
      0.335000          0.187048E-03
      0.340000          0.183325E-03
      0.345000          0.179847E-03
      0.350000          0.176543E-03
      0.355000          0.173358E-03
      0.360000          0.170256E-03
      0.365000          0.167218E-03
      0.370000          0.164239E-03
      0.375000          0.161320E-03
      0.380000          0.158470E-03
      0.385000          0.155691E-03
      0.390000          0.152984E-03
      0.395000          0.150344E-03
      0.400000          0.147758E-03
      0.405000          0.145210E-03
      0.410000          0.142680E-03
      0.415000          0.140152E-03
      0.420000          0.137612E-03
      0.425000          0.135057E-03
      0.430000          0.132492E-03
      0.435000          0.129934E-03
      0.440000          0.127408E-03
      0.445000          0.124946E-03
      0.450000          0.122586E-03
      0.455000          0.120361E-03
      0.460000          0.118302E-03
      0.465000          0.116429E-03
      0.470000          0.114750E-03
      0.475000          0.113260E-03
      0.480000          0.111939E-03
      0.485000          0.110756E-03
      0.490000          0.109670E-03
      0.495000          0.108635E-03
      0.500000          0.107605E-03
