 I_abs(s)[cm^-1]/c[mg/ml]
       0.00000          0.142896E-01
      0.500000E-02      0.142203E-01
      0.100000E-01      0.140143E-01
      0.150000E-01      0.136777E-01
      0.200000E-01      0.132204E-01
      0.250000E-01      0.126553E-01
      0.300000E-01      0.119982E-01
      0.350000E-01      0.112669E-01
      0.400000E-01      0.104803E-01
      0.450000E-01      0.965792E-02
      0.500000E-01      0.881873E-02
      0.550000E-01      0.798082E-02
      0.600000E-01      0.716059E-02
      0.650000E-01      0.637232E-02
      0.700000E-01      0.562778E-02
      0.750000E-01      0.493607E-02
      0.800000E-01      0.430353E-02
      0.850000E-01      0.373383E-02
      0.900000E-01      0.322819E-02
      0.950000E-01      0.278564E-02
      0.100000          0.240339E-02
      0.105000          0.207728E-02
      0.110000          0.180210E-02
      0.115000          0.157211E-02
      0.120000          0.138130E-02
      0.125000          0.122376E-02
      0.130000          0.109394E-02
      0.135000          0.986805E-03
      0.140000          0.897950E-03
      0.145000          0.823680E-03
      0.150000          0.760989E-03
      0.155000          0.707521E-03
      0.160000          0.661488E-03
      0.165000          0.621578E-03
      0.170000          0.586852E-03
      0.175000          0.556638E-03
      0.180000          0.530442E-03
      0.185000          0.507875E-03
      0.190000          0.488589E-03
      0.195000          0.472241E-03
      0.200000          0.458474E-03
      0.205000          0.446907E-03
      0.210000          0.437141E-03
      0.215000          0.428773E-03
      0.220000          0.421414E-03
      0.225000          0.414699E-03
      0.230000          0.408310E-03
      0.235000          0.401981E-03
      0.240000          0.395507E-03
      0.245000          0.388739E-03
      0.250000          0.381587E-03
      0.255000          0.374007E-03
      0.260000          0.365993E-03
      0.265000          0.357566E-03
      0.270000          0.348763E-03
      0.275000          0.339632E-03
      0.280000          0.330221E-03
      0.285000          0.320573E-03
      0.290000          0.310732E-03
      0.295000          0.300733E-03
      0.300000          0.290612E-03
      0.305000          0.280405E-03
      0.310000          0.270154E-03
      0.315000          0.259905E-03
      0.320000          0.249715E-03
      0.325000          0.239649E-03
      0.330000          0.229781E-03
      0.335000          0.220191E-03
      0.340000          0.210961E-03
      0.345000          0.202174E-03
      0.350000          0.193904E-03
      0.355000          0.186218E-03
      0.360000          0.179167E-03
      0.365000          0.172784E-03
      0.370000          0.167085E-03
      0.375000          0.162063E-03
      0.380000          0.157694E-03
      0.385000          0.153934E-03
      0.390000          0.150725E-03
      0.395000          0.147996E-03
      0.400000          0.145669E-03
      0.405000          0.143663E-03
      0.410000          0.141896E-03
      0.415000          0.140292E-03
      0.420000          0.138780E-03
      0.425000          0.137301E-03
      0.430000          0.135806E-03
      0.435000          0.134256E-03
      0.440000          0.132627E-03
      0.445000          0.130903E-03
      0.450000          0.129080E-03
      0.455000          0.127160E-03
      0.460000          0.125153E-03
      0.465000          0.123072E-03
      0.470000          0.120933E-03
      0.475000          0.118752E-03
      0.480000          0.116546E-03
      0.485000          0.114327E-03
      0.490000          0.112110E-03
      0.495000          0.109902E-03
      0.500000          0.107712E-03
