 I_abs(s)[cm^-1]/c[mg/ml]
       0.00000          0.142896E-01
      0.500000E-02      0.142176E-01
      0.100000E-01      0.140034E-01
      0.150000E-01      0.136533E-01
      0.200000E-01      0.131775E-01
      0.250000E-01      0.125892E-01
      0.300000E-01      0.119047E-01
      0.350000E-01      0.111425E-01
      0.400000E-01      0.103222E-01
      0.450000E-01      0.946425E-02
      0.500000E-01      0.858874E-02
      0.550000E-01      0.771487E-02
      0.600000E-01      0.686029E-02
      0.650000E-01      0.604049E-02
      0.700000E-01      0.526846E-02
      0.750000E-01      0.455438E-02
      0.800000E-01      0.390553E-02
      0.850000E-01      0.332630E-02
      0.900000E-01      0.281835E-02
      0.950000E-01      0.238085E-02
      0.100000          0.201087E-02
      0.105000          0.170375E-02
      0.110000          0.145355E-02
      0.115000          0.125349E-02
      0.120000          0.109638E-02
      0.125000          0.975018E-03
      0.130000          0.882462E-03
      0.135000          0.812348E-03
      0.140000          0.759044E-03
      0.145000          0.717778E-03
      0.150000          0.684676E-03
      0.155000          0.656757E-03
      0.160000          0.631865E-03
      0.165000          0.608572E-03
      0.170000          0.586057E-03
      0.175000          0.563969E-03
      0.180000          0.542293E-03
      0.185000          0.521226E-03
      0.190000          0.501067E-03
      0.195000          0.482126E-03
      0.200000          0.464662E-03
      0.205000          0.448838E-03
      0.210000          0.434703E-03
      0.215000          0.422186E-03
      0.220000          0.411112E-03
      0.225000          0.401224E-03
      0.230000          0.392210E-03
      0.235000          0.383739E-03
      0.240000          0.375485E-03
      0.245000          0.367158E-03
      0.250000          0.358524E-03
      0.255000          0.349414E-03
      0.260000          0.339738E-03
      0.265000          0.329480E-03
      0.270000          0.318696E-03
      0.275000          0.307504E-03
      0.280000          0.296070E-03
      0.285000          0.284595E-03
      0.290000          0.273296E-03
      0.295000          0.262395E-03
      0.300000          0.252102E-03
      0.305000          0.242604E-03
      0.310000          0.234056E-03
      0.315000          0.226568E-03
      0.320000          0.220207E-03
      0.325000          0.214993E-03
      0.330000          0.210896E-03
      0.335000          0.207841E-03
      0.340000          0.205715E-03
      0.345000          0.204371E-03
      0.350000          0.203637E-03
      0.355000          0.203325E-03
      0.360000          0.203240E-03
      0.365000          0.203191E-03
      0.370000          0.203001E-03
      0.375000          0.202513E-03
      0.380000          0.201595E-03
      0.385000          0.200153E-03
      0.390000          0.198124E-03
      0.395000          0.195484E-03
      0.400000          0.192245E-03
      0.405000          0.188451E-03
      0.410000          0.184172E-03
      0.415000          0.179500E-03
      0.420000          0.174542E-03
      0.425000          0.169410E-03
      0.430000          0.164215E-03
      0.435000          0.159061E-03
      0.440000          0.154039E-03
      0.445000          0.149219E-03
      0.450000          0.144656E-03
      0.455000          0.140379E-03
      0.460000          0.136398E-03
      0.465000          0.132706E-03
      0.470000          0.129279E-03
      0.475000          0.126080E-03
      0.480000          0.123070E-03
      0.485000          0.120204E-03
      0.490000          0.117440E-03
      0.495000          0.114743E-03
      0.500000          0.112084E-03
