 I_abs(s)[cm^-1]/c[mg/ml]
       0.00000          0.141796E-01
      0.500000E-02      0.141160E-01
      0.100000E-01      0.139268E-01
      0.150000E-01      0.136166E-01
      0.200000E-01      0.131928E-01
      0.250000E-01      0.126657E-01
      0.300000E-01      0.120476E-01
      0.350000E-01      0.113528E-01
      0.400000E-01      0.105968E-01
      0.450000E-01      0.979599E-02
      0.500000E-01      0.896712E-02
      0.550000E-01      0.812663E-02
      0.600000E-01      0.729027E-02
      0.650000E-01      0.647263E-02
      0.700000E-01      0.568676E-02
      0.750000E-01      0.494388E-02
      0.800000E-01      0.425318E-02
      0.850000E-01      0.362165E-02
      0.900000E-01      0.305412E-02
      0.950000E-01      0.255322E-02
      0.100000          0.211957E-02
      0.105000          0.175193E-02
      0.110000          0.144745E-02
      0.115000          0.120191E-02
      0.120000          0.101006E-02
      0.125000          0.865890E-03
      0.130000          0.762946E-03
      0.135000          0.694580E-03
      0.140000          0.654220E-03
      0.145000          0.635580E-03
      0.150000          0.632833E-03
      0.155000          0.640748E-03
      0.160000          0.654779E-03
      0.165000          0.671115E-03
      0.170000          0.686695E-03
      0.175000          0.699192E-03
      0.180000          0.706962E-03
      0.185000          0.708986E-03
      0.190000          0.704787E-03
      0.195000          0.694342E-03
      0.200000          0.677994E-03
      0.205000          0.656362E-03
      0.210000          0.630253E-03
      0.215000          0.600596E-03
      0.220000          0.568365E-03
      0.225000          0.534532E-03
      0.230000          0.500022E-03
      0.235000          0.465677E-03
      0.240000          0.432236E-03
      0.245000          0.400324E-03
      0.250000          0.370440E-03
      0.255000          0.342961E-03
      0.260000          0.318147E-03
      0.265000          0.296149E-03
      0.270000          0.277018E-03
      0.275000          0.260720E-03
      0.280000          0.247150E-03
      0.285000          0.236141E-03
      0.290000          0.227479E-03
      0.295000          0.220917E-03
      0.300000          0.216183E-03
      0.305000          0.212993E-03
      0.310000          0.211056E-03
      0.315000          0.210088E-03
      0.320000          0.209817E-03
      0.325000          0.209986E-03
      0.330000          0.210361E-03
      0.335000          0.210734E-03
      0.340000          0.210928E-03
      0.345000          0.210795E-03
      0.350000          0.210220E-03
      0.355000          0.209118E-03
      0.360000          0.207437E-03
      0.365000          0.205153E-03
      0.370000          0.202270E-03
      0.375000          0.198814E-03
      0.380000          0.194833E-03
      0.385000          0.190394E-03
      0.390000          0.185572E-03
      0.395000          0.180457E-03
      0.400000          0.175142E-03
      0.405000          0.169722E-03
      0.410000          0.164291E-03
      0.415000          0.158940E-03
      0.420000          0.153753E-03
      0.425000          0.148803E-03
      0.430000          0.144154E-03
      0.435000          0.139860E-03
      0.440000          0.135959E-03
      0.445000          0.132477E-03
      0.450000          0.129429E-03
      0.455000          0.126815E-03
      0.460000          0.124623E-03
      0.465000          0.122832E-03
      0.470000          0.121411E-03
      0.475000          0.120318E-03
      0.480000          0.119508E-03
      0.485000          0.118929E-03
      0.490000          0.118526E-03
      0.495000          0.118242E-03
      0.500000          0.118021E-03
