 I_abs(s)[cm^-1]/c[mg/ml]
       0.00000          0.140232E-01
      0.500000E-02      0.139574E-01
      0.100000E-01      0.137619E-01
      0.150000E-01      0.134419E-01
      0.200000E-01      0.130057E-01
      0.250000E-01      0.124648E-01
      0.300000E-01      0.118329E-01
      0.350000E-01      0.111258E-01
      0.400000E-01      0.103607E-01
      0.450000E-01      0.955555E-02
      0.500000E-01      0.872837E-02
      0.550000E-01      0.789676E-02
      0.600000E-01      0.707724E-02
      0.650000E-01      0.628481E-02
      0.700000E-01      0.553250E-02
      0.750000E-01      0.483109E-02
      0.800000E-01      0.418885E-02
      0.850000E-01      0.361153E-02
      0.900000E-01      0.310230E-02
      0.950000E-01      0.266191E-02
      0.100000          0.228888E-02
      0.105000          0.197982E-02
      0.110000          0.172971E-02
      0.115000          0.153233E-02
      0.120000          0.138063E-02
      0.125000          0.126709E-02
      0.130000          0.118413E-02
      0.135000          0.112442E-02
      0.140000          0.108115E-02
      0.145000          0.104826E-02
      0.150000          0.102061E-02
      0.155000          0.994043E-03
      0.160000          0.965469E-03
      0.165000          0.932799E-03
      0.170000          0.894897E-03
      0.175000          0.851462E-03
      0.180000          0.802898E-03
      0.185000          0.750151E-03
      0.190000          0.694552E-03
      0.195000          0.637656E-03
      0.200000          0.581093E-03
      0.205000          0.526443E-03
      0.210000          0.475122E-03
      0.215000          0.428311E-03
      0.220000          0.386896E-03
      0.225000          0.351444E-03
      0.230000          0.322200E-03
      0.235000          0.299108E-03
      0.240000          0.281842E-03
      0.245000          0.269860E-03
      0.250000          0.262453E-03
      0.255000          0.258805E-03
      0.260000          0.258053E-03
      0.265000          0.259333E-03
      0.270000          0.261833E-03
      0.275000          0.264821E-03
      0.280000          0.267676E-03
      0.285000          0.269902E-03
      0.290000          0.271134E-03
      0.295000          0.271139E-03
      0.300000          0.269799E-03
      0.305000          0.267107E-03
      0.310000          0.263137E-03
      0.315000          0.258033E-03
      0.320000          0.251982E-03
      0.325000          0.245200E-03
      0.330000          0.237908E-03
      0.335000          0.230323E-03
      0.340000          0.222643E-03
      0.345000          0.215043E-03
      0.350000          0.207663E-03
      0.355000          0.200614E-03
      0.360000          0.193973E-03
      0.365000          0.187788E-03
      0.370000          0.182078E-03
      0.375000          0.176845E-03
      0.380000          0.172069E-03
      0.385000          0.167722E-03
      0.390000          0.163765E-03
      0.395000          0.160156E-03
      0.400000          0.156850E-03
      0.405000          0.153804E-03
      0.410000          0.150977E-03
      0.415000          0.148330E-03
      0.420000          0.145826E-03
      0.425000          0.143435E-03
      0.430000          0.141128E-03
      0.435000          0.138876E-03
      0.440000          0.136658E-03
      0.445000          0.134451E-03
      0.450000          0.132237E-03
      0.455000          0.129998E-03
      0.460000          0.127721E-03
      0.465000          0.125394E-03
      0.470000          0.123009E-03
      0.475000          0.120563E-03
      0.480000          0.118055E-03
      0.485000          0.115489E-03
      0.490000          0.112875E-03
      0.495000          0.110225E-03
      0.500000          0.107558E-03
