 I_abs(s)[cm^-1]/c[mg/ml]
       0.00000          0.138211E-01
      0.500000E-02      0.137435E-01
      0.100000E-01      0.135137E-01
      0.150000E-01      0.131401E-01
      0.200000E-01      0.126365E-01
      0.250000E-01      0.120209E-01
      0.300000E-01      0.113147E-01
      0.350000E-01      0.105416E-01
      0.400000E-01      0.972599E-02
      0.450000E-01      0.889226E-02
      0.500000E-01      0.806316E-02
      0.550000E-01      0.725904E-02
      0.600000E-01      0.649696E-02
      0.650000E-01      0.579021E-02
      0.700000E-01      0.514795E-02
      0.750000E-01      0.457531E-02
      0.800000E-01      0.407356E-02
      0.850000E-01      0.364060E-02
      0.900000E-01      0.327156E-02
      0.950000E-01      0.295953E-02
      0.100000          0.269629E-02
      0.105000          0.247310E-02
      0.110000          0.228132E-02
      0.115000          0.211301E-02
      0.120000          0.196132E-02
      0.125000          0.182080E-02
      0.130000          0.168748E-02
      0.135000          0.155889E-02
      0.140000          0.143390E-02
      0.145000          0.131247E-02
      0.150000          0.119541E-02
      0.155000          0.108403E-02
      0.160000          0.979876E-03
      0.165000          0.884408E-03
      0.170000          0.798836E-03
      0.175000          0.723940E-03
      0.180000          0.659996E-03
      0.185000          0.606756E-03
      0.190000          0.563493E-03
      0.195000          0.529085E-03
      0.200000          0.502132E-03
      0.205000          0.481086E-03
      0.210000          0.464379E-03
      0.215000          0.450542E-03
      0.220000          0.438291E-03
      0.225000          0.426596E-03
      0.230000          0.414710E-03
      0.235000          0.402172E-03
      0.240000          0.388786E-03
      0.245000          0.374575E-03
      0.250000          0.359728E-03
      0.255000          0.344539E-03
      0.260000          0.329348E-03
      0.265000          0.314489E-03
      0.270000          0.300251E-03
      0.275000          0.286848E-03
      0.280000          0.274406E-03
      0.285000          0.262965E-03
      0.290000          0.252483E-03
      0.295000          0.242858E-03
      0.300000          0.233950E-03
      0.305000          0.225600E-03
      0.310000          0.217658E-03
      0.315000          0.209995E-03
      0.320000          0.202519E-03
      0.325000          0.195180E-03
      0.330000          0.187974E-03
      0.335000          0.180934E-03
      0.340000          0.174123E-03
      0.345000          0.167625E-03
      0.350000          0.161529E-03
      0.355000          0.155920E-03
      0.360000          0.150867E-03
      0.365000          0.146414E-03
      0.370000          0.142577E-03
      0.375000          0.139341E-03
      0.380000          0.136659E-03
      0.385000          0.134463E-03
      0.390000          0.132661E-03
      0.395000          0.131153E-03
      0.400000          0.129832E-03
      0.405000          0.128599E-03
      0.410000          0.127365E-03
      0.415000          0.126058E-03
      0.420000          0.124628E-03
      0.425000          0.123050E-03
      0.430000          0.121320E-03
      0.435000          0.119458E-03
      0.440000          0.117500E-03
      0.445000          0.115496E-03
      0.450000          0.113505E-03
      0.455000          0.111584E-03
      0.460000          0.109789E-03
      0.465000          0.108165E-03
      0.470000          0.106745E-03
      0.475000          0.105545E-03
      0.480000          0.104562E-03
      0.485000          0.103779E-03
      0.490000          0.103162E-03
      0.495000          0.102664E-03
      0.500000          0.102231E-03
