 I_abs(s)[cm^-1]/c[mg/ml]
       0.00000          0.145189E-01
      0.500000E-02      0.144698E-01
      0.100000E-01      0.143236E-01
      0.150000E-01      0.140829E-01
      0.200000E-01      0.137525E-01
      0.250000E-01      0.133385E-01
      0.300000E-01      0.128488E-01
      0.350000E-01      0.122922E-01
      0.400000E-01      0.116788E-01
      0.450000E-01      0.110191E-01
      0.500000E-01      0.103244E-01
      0.550000E-01      0.960594E-02
      0.600000E-01      0.887470E-02
      0.650000E-01      0.814143E-02
      0.700000E-01      0.741616E-02
      0.750000E-01      0.670806E-02
      0.800000E-01      0.602525E-02
      0.850000E-01      0.537472E-02
      0.900000E-01      0.476218E-02
      0.950000E-01      0.419206E-02
      0.100000          0.366749E-02
      0.105000          0.319034E-02
      0.110000          0.276130E-02
      0.115000          0.238000E-02
      0.120000          0.204510E-02
      0.125000          0.175445E-02
      0.130000          0.150524E-02
      0.135000          0.129418E-02
      0.140000          0.111764E-02
      0.145000          0.971772E-03
      0.150000          0.852692E-03
      0.155000          0.756570E-03
      0.160000          0.679743E-03
      0.165000          0.618793E-03
      0.170000          0.570610E-03
      0.175000          0.532435E-03
      0.180000          0.501880E-03
      0.185000          0.476937E-03
      0.190000          0.455967E-03
      0.195000          0.437678E-03
      0.200000          0.421097E-03
      0.205000          0.405530E-03
      0.210000          0.390521E-03
      0.215000          0.375810E-03
      0.220000          0.361292E-03
      0.225000          0.346972E-03
      0.230000          0.332935E-03
      0.235000          0.319307E-03
      0.240000          0.306237E-03
      0.245000          0.293868E-03
      0.250000          0.282328E-03
      0.255000          0.271715E-03
      0.260000          0.262092E-03
      0.265000          0.253486E-03
      0.270000          0.245885E-03
      0.275000          0.239249E-03
      0.280000          0.233505E-03
      0.285000          0.228562E-03
      0.290000          0.224310E-03
      0.295000          0.220631E-03
      0.300000          0.217403E-03
      0.305000          0.214506E-03
      0.310000          0.211825E-03
      0.315000          0.209255E-03
      0.320000          0.206703E-03
      0.325000          0.204088E-03
      0.330000          0.201345E-03
      0.335000          0.198424E-03
      0.340000          0.195288E-03
      0.345000          0.191913E-03
      0.350000          0.188289E-03
      0.355000          0.184418E-03
      0.360000          0.180308E-03
      0.365000          0.175981E-03
      0.370000          0.171462E-03
      0.375000          0.166783E-03
      0.380000          0.161981E-03
      0.385000          0.157095E-03
      0.390000          0.152167E-03
      0.395000          0.147240E-03
      0.400000          0.142355E-03
      0.405000          0.137554E-03
      0.410000          0.132876E-03
      0.415000          0.128356E-03
      0.420000          0.124029E-03
      0.425000          0.119922E-03
      0.430000          0.116059E-03
      0.435000          0.112460E-03
      0.440000          0.109139E-03
      0.445000          0.106105E-03
      0.450000          0.103361E-03
      0.455000          0.100905E-03
      0.460000          0.987317E-04
      0.465000          0.968291E-04
      0.470000          0.951822E-04
      0.475000          0.937723E-04
      0.480000          0.925776E-04
      0.485000          0.915739E-04
      0.490000          0.907354E-04
      0.495000          0.900350E-04
      0.500000          0.894454E-04
