 I_abs(s)[cm^-1]/c[mg/ml]
       0.00000          0.137669E-01
      0.500000E-02      0.136938E-01
      0.100000E-01      0.134769E-01
      0.150000E-01      0.131238E-01
      0.200000E-01      0.126463E-01
      0.250000E-01      0.120605E-01
      0.300000E-01      0.113854E-01
      0.350000E-01      0.106419E-01
      0.400000E-01      0.985239E-02
      0.450000E-01      0.903903E-02
      0.500000E-01      0.822309E-02
      0.550000E-01      0.742401E-02
      0.600000E-01      0.665861E-02
      0.650000E-01      0.594061E-02
      0.700000E-01      0.528030E-02
      0.750000E-01      0.468438E-02
      0.800000E-01      0.415614E-02
      0.850000E-01      0.369564E-02
      0.900000E-01      0.330024E-02
      0.950000E-01      0.296505E-02
      0.100000          0.268357E-02
      0.105000          0.244830E-02
      0.110000          0.225131E-02
      0.115000          0.208479E-02
      0.120000          0.194145E-02
      0.125000          0.181491E-02
      0.130000          0.169984E-02
      0.135000          0.159214E-02
      0.140000          0.148890E-02
      0.145000          0.138833E-02
      0.150000          0.128960E-02
      0.155000          0.119267E-02
      0.160000          0.109805E-02
      0.165000          0.100659E-02
      0.170000          0.919297E-03
      0.175000          0.837165E-03
      0.180000          0.761032E-03
      0.185000          0.691507E-03
      0.190000          0.628922E-03
      0.195000          0.573325E-03
      0.200000          0.524502E-03
      0.205000          0.482023E-03
      0.210000          0.445299E-03
      0.215000          0.413647E-03
      0.220000          0.386348E-03
      0.225000          0.362701E-03
      0.230000          0.342062E-03
      0.235000          0.323872E-03
      0.240000          0.307674E-03
      0.245000          0.293107E-03
      0.250000          0.279905E-03
      0.255000          0.267882E-03
      0.260000          0.256908E-03
      0.265000          0.246896E-03
      0.270000          0.237783E-03
      0.275000          0.229513E-03
      0.280000          0.222032E-03
      0.285000          0.215275E-03
      0.290000          0.209171E-03
      0.295000          0.203641E-03
      0.300000          0.198601E-03
      0.305000          0.193968E-03
      0.310000          0.189665E-03
      0.315000          0.185625E-03
      0.320000          0.181792E-03
      0.325000          0.178126E-03
      0.330000          0.174600E-03
      0.335000          0.171198E-03
      0.340000          0.167915E-03
      0.345000          0.164755E-03
      0.350000          0.161722E-03
      0.355000          0.158824E-03
      0.360000          0.156068E-03
      0.365000          0.153457E-03
      0.370000          0.150991E-03
      0.375000          0.148668E-03
      0.380000          0.146482E-03
      0.385000          0.144423E-03
      0.390000          0.142481E-03
      0.395000          0.140644E-03
      0.400000          0.138900E-03
      0.405000          0.137235E-03
      0.410000          0.135635E-03
      0.415000          0.134085E-03
      0.420000          0.132569E-03
      0.425000          0.131070E-03
      0.430000          0.129567E-03
      0.435000          0.128040E-03
      0.440000          0.126468E-03
      0.445000          0.124829E-03
      0.450000          0.123105E-03
      0.455000          0.121280E-03
      0.460000          0.119342E-03
      0.465000          0.117287E-03
      0.470000          0.115120E-03
      0.475000          0.112850E-03
      0.480000          0.110500E-03
      0.485000          0.108096E-03
      0.490000          0.105674E-03
      0.495000          0.103274E-03
      0.500000          0.100937E-03
