 I_abs(s)[cm^-1]/c[mg/ml]
       0.00000          0.140856E-01
      0.500000E-02      0.140151E-01
      0.100000E-01      0.138053E-01
      0.150000E-01      0.134620E-01
      0.200000E-01      0.129940E-01
      0.250000E-01      0.124136E-01
      0.300000E-01      0.117356E-01
      0.350000E-01      0.109770E-01
      0.400000E-01      0.101563E-01
      0.450000E-01      0.929263E-02
      0.500000E-01      0.840555E-02
      0.550000E-01      0.751400E-02
      0.600000E-01      0.663588E-02
      0.650000E-01      0.578745E-02
      0.700000E-01      0.498295E-02
      0.750000E-01      0.423422E-02
      0.800000E-01      0.355051E-02
      0.850000E-01      0.293836E-02
      0.900000E-01      0.240161E-02
      0.950000E-01      0.194153E-02
      0.100000          0.155702E-02
      0.105000          0.124489E-02
      0.110000          0.100017E-02
      0.115000          0.816555E-03
      0.120000          0.686719E-03
      0.125000          0.602757E-03
      0.130000          0.556530E-03
      0.135000          0.540007E-03
      0.140000          0.545551E-03
      0.145000          0.566157E-03
      0.150000          0.595628E-03
      0.155000          0.628692E-03
      0.160000          0.661065E-03
      0.165000          0.689462E-03
      0.170000          0.711553E-03
      0.175000          0.725899E-03
      0.180000          0.731841E-03
      0.185000          0.729385E-03
      0.190000          0.719068E-03
      0.195000          0.701822E-03
      0.200000          0.678848E-03
      0.205000          0.651497E-03
      0.210000          0.621161E-03
      0.215000          0.589192E-03
      0.220000          0.556829E-03
      0.225000          0.525151E-03
      0.230000          0.495041E-03
      0.235000          0.467177E-03
      0.240000          0.442023E-03
      0.245000          0.419844E-03
      0.250000          0.400725E-03
      0.255000          0.384590E-03
      0.260000          0.371238E-03
      0.265000          0.360370E-03
      0.270000          0.351618E-03
      0.275000          0.344577E-03
      0.280000          0.338827E-03
      0.285000          0.333961E-03
      0.290000          0.329597E-03
      0.295000          0.325397E-03
      0.300000          0.321077E-03
      0.305000          0.316410E-03
      0.310000          0.311232E-03
      0.315000          0.305442E-03
      0.320000          0.298997E-03
      0.325000          0.291904E-03
      0.330000          0.284218E-03
      0.335000          0.276031E-03
      0.340000          0.267459E-03
      0.345000          0.258638E-03
      0.350000          0.249712E-03
      0.355000          0.240823E-03
      0.360000          0.232104E-03
      0.365000          0.223673E-03
      0.370000          0.215627E-03
      0.375000          0.208041E-03
      0.380000          0.200962E-03
      0.385000          0.194412E-03
      0.390000          0.188388E-03
      0.395000          0.182867E-03
      0.400000          0.177805E-03
      0.405000          0.173147E-03
      0.410000          0.168829E-03
      0.415000          0.164782E-03
      0.420000          0.160938E-03
      0.425000          0.157236E-03
      0.430000          0.153623E-03
      0.435000          0.150058E-03
      0.440000          0.146512E-03
      0.445000          0.142973E-03
      0.450000          0.139439E-03
      0.455000          0.135925E-03
      0.460000          0.132453E-03
      0.465000          0.129055E-03
      0.470000          0.125770E-03
      0.475000          0.122637E-03
      0.480000          0.119697E-03
      0.485000          0.116986E-03
      0.490000          0.114536E-03
      0.495000          0.112370E-03
      0.500000          0.110504E-03
