 I_abs(s)[cm^-1]/c[mg/ml]
       0.00000          0.140778E-01
      0.500000E-02      0.139746E-01
      0.100000E-01      0.136707E-01
      0.150000E-01      0.131829E-01
      0.200000E-01      0.125373E-01
      0.250000E-01      0.117672E-01
      0.300000E-01      0.109098E-01
      0.350000E-01      0.100030E-01
      0.400000E-01      0.908297E-02
      0.450000E-01      0.818114E-02
      0.500000E-01      0.732269E-02
      0.550000E-01      0.652555E-02
      0.600000E-01      0.580041E-02
      0.650000E-01      0.515128E-02
      0.700000E-01      0.457677E-02
      0.750000E-01      0.407158E-02
      0.800000E-01      0.362811E-02
      0.850000E-01      0.323790E-02
      0.900000E-01      0.289286E-02
      0.950000E-01      0.258596E-02
      0.100000          0.231173E-02
      0.105000          0.206624E-02
      0.110000          0.184686E-02
      0.115000          0.165190E-02
      0.120000          0.148018E-02
      0.125000          0.133061E-02
      0.130000          0.120189E-02
      0.135000          0.109237E-02
      0.140000          0.100005E-02
      0.145000          0.922608E-03
      0.150000          0.857599E-03
      0.155000          0.802609E-03
      0.160000          0.755431E-03
      0.165000          0.714177E-03
      0.170000          0.677352E-03
      0.175000          0.643857E-03
      0.180000          0.612947E-03
      0.185000          0.584161E-03
      0.190000          0.557227E-03
      0.195000          0.531981E-03
      0.200000          0.508296E-03
      0.205000          0.486034E-03
      0.210000          0.465030E-03
      0.215000          0.445093E-03
      0.220000          0.426034E-03
      0.225000          0.407697E-03
      0.230000          0.389989E-03
      0.235000          0.372906E-03
      0.240000          0.356545E-03
      0.245000          0.341093E-03
      0.250000          0.326804E-03
      0.255000          0.313959E-03
      0.260000          0.302816E-03
      0.265000          0.293563E-03
      0.270000          0.286274E-03
      0.275000          0.280881E-03
      0.280000          0.277167E-03
      0.285000          0.274780E-03
      0.290000          0.273262E-03
      0.295000          0.272103E-03
      0.300000          0.270793E-03
      0.305000          0.268883E-03
      0.310000          0.266028E-03
      0.315000          0.262022E-03
      0.320000          0.256808E-03
      0.325000          0.250472E-03
      0.330000          0.243214E-03
      0.335000          0.235308E-03
      0.340000          0.227061E-03
      0.345000          0.218769E-03
      0.350000          0.210675E-03
      0.355000          0.202956E-03
      0.360000          0.195705E-03
      0.365000          0.188942E-03
      0.370000          0.182625E-03
      0.375000          0.176675E-03
      0.380000          0.171000E-03
      0.385000          0.165516E-03
      0.390000          0.160161E-03
      0.395000          0.154907E-03
      0.400000          0.149757E-03
      0.405000          0.144744E-03
      0.410000          0.139916E-03
      0.415000          0.135326E-03
      0.420000          0.131021E-03
      0.425000          0.127036E-03
      0.430000          0.123383E-03
      0.435000          0.120055E-03
      0.440000          0.117025E-03
      0.445000          0.114255E-03
      0.450000          0.111698E-03
      0.455000          0.109303E-03
      0.460000          0.107028E-03
      0.465000          0.104835E-03
      0.470000          0.102698E-03
      0.475000          0.100602E-03
      0.480000          0.985425E-04
      0.485000          0.965221E-04
      0.490000          0.945500E-04
      0.495000          0.926384E-04
      0.500000          0.907999E-04
