 I_abs(s)[cm^-1]/c[mg/ml]
       0.00000          0.144238E-01
      0.500000E-02      0.143729E-01
      0.100000E-01      0.142211E-01
      0.150000E-01      0.139716E-01
      0.200000E-01      0.136295E-01
      0.250000E-01      0.132016E-01
      0.300000E-01      0.126965E-01
      0.350000E-01      0.121239E-01
      0.400000E-01      0.114946E-01
      0.450000E-01      0.108204E-01
      0.500000E-01      0.101129E-01
      0.550000E-01      0.938440E-02
      0.600000E-01      0.864643E-02
      0.650000E-01      0.791022E-02
      0.700000E-01      0.718610E-02
      0.750000E-01      0.648335E-02
      0.800000E-01      0.581008E-02
      0.850000E-01      0.517302E-02
      0.900000E-01      0.457751E-02
      0.950000E-01      0.402748E-02
      0.100000          0.352544E-02
      0.105000          0.307258E-02
      0.110000          0.266886E-02
      0.115000          0.231319E-02
      0.120000          0.200351E-02
      0.125000          0.173704E-02
      0.130000          0.151042E-02
      0.135000          0.131987E-02
      0.140000          0.116139E-02
      0.145000          0.103091E-02
      0.150000          0.924402E-03
      0.155000          0.838015E-03
      0.160000          0.768163E-03
      0.165000          0.711587E-03
      0.170000          0.665408E-03
      0.175000          0.627146E-03
      0.180000          0.594728E-03
      0.185000          0.566475E-03
      0.190000          0.541077E-03
      0.195000          0.517556E-03
      0.200000          0.495230E-03
      0.205000          0.473661E-03
      0.210000          0.452612E-03
      0.215000          0.431999E-03
      0.220000          0.411849E-03
      0.225000          0.392263E-03
      0.230000          0.373383E-03
      0.235000          0.355362E-03
      0.240000          0.338346E-03
      0.245000          0.322459E-03
      0.250000          0.307791E-03
      0.255000          0.294394E-03
      0.260000          0.282280E-03
      0.265000          0.271422E-03
      0.270000          0.261763E-03
      0.275000          0.253213E-03
      0.280000          0.245663E-03
      0.285000          0.238989E-03
      0.290000          0.233060E-03
      0.295000          0.227742E-03
      0.300000          0.222905E-03
      0.305000          0.218427E-03
      0.310000          0.214201E-03
      0.315000          0.210131E-03
      0.320000          0.206138E-03
      0.325000          0.202161E-03
      0.330000          0.198155E-03
      0.335000          0.194091E-03
      0.340000          0.189954E-03
      0.345000          0.185744E-03
      0.350000          0.181470E-03
      0.355000          0.177150E-03
      0.360000          0.172810E-03
      0.365000          0.168480E-03
      0.370000          0.164191E-03
      0.375000          0.159976E-03
      0.380000          0.155866E-03
      0.385000          0.151890E-03
      0.390000          0.148074E-03
      0.395000          0.144436E-03
      0.400000          0.140993E-03
      0.405000          0.137752E-03
      0.410000          0.134719E-03
      0.415000          0.131890E-03
      0.420000          0.129259E-03
      0.425000          0.126814E-03
      0.430000          0.124541E-03
      0.435000          0.122421E-03
      0.440000          0.120435E-03
      0.445000          0.118561E-03
      0.450000          0.116778E-03
      0.455000          0.115065E-03
      0.460000          0.113403E-03
      0.465000          0.111774E-03
      0.470000          0.110163E-03
      0.475000          0.108558E-03
      0.480000          0.106949E-03
      0.485000          0.105330E-03
      0.490000          0.103699E-03
      0.495000          0.102056E-03
      0.500000          0.100402E-03
