 I_abs(s)[cm^-1]/c[mg/ml]
       0.00000          0.144238E-01
      0.500000E-02      0.143480E-01
      0.100000E-01      0.141232E-01
      0.150000E-01      0.137577E-01
      0.200000E-01      0.132643E-01
      0.250000E-01      0.126603E-01
      0.300000E-01      0.119657E-01
      0.350000E-01      0.112027E-01
      0.400000E-01      0.103943E-01
      0.450000E-01      0.956304E-02
      0.500000E-01      0.872997E-02
      0.550000E-01      0.791383E-02
      0.600000E-01      0.713029E-02
      0.650000E-01      0.639163E-02
      0.700000E-01      0.570650E-02
      0.750000E-01      0.508005E-02
      0.800000E-01      0.451424E-02
      0.850000E-01      0.400830E-02
      0.900000E-01      0.355928E-02
      0.950000E-01      0.316274E-02
      0.100000          0.281330E-02
      0.105000          0.250525E-02
      0.110000          0.223301E-02
      0.115000          0.199148E-02
      0.120000          0.177627E-02
      0.125000          0.158382E-02
      0.130000          0.141138E-02
      0.135000          0.125694E-02
      0.140000          0.111905E-02
      0.145000          0.996710E-03
      0.150000          0.889115E-03
      0.155000          0.795557E-03
      0.160000          0.715273E-03
      0.165000          0.647375E-03
      0.170000          0.590814E-03
      0.175000          0.544390E-03
      0.180000          0.506794E-03
      0.185000          0.476666E-03
      0.190000          0.452669E-03
      0.195000          0.433558E-03
      0.200000          0.418229E-03
      0.205000          0.405761E-03
      0.210000          0.395429E-03
      0.215000          0.386698E-03
      0.220000          0.379198E-03
      0.225000          0.372686E-03
      0.230000          0.367008E-03
      0.235000          0.362049E-03
      0.240000          0.357703E-03
      0.245000          0.353841E-03
      0.250000          0.350299E-03
      0.255000          0.346877E-03
      0.260000          0.343344E-03
      0.265000          0.339461E-03
      0.270000          0.335001E-03
      0.275000          0.329771E-03
      0.280000          0.323635E-03
      0.285000          0.316530E-03
      0.290000          0.308468E-03
      0.295000          0.299538E-03
      0.300000          0.289896E-03
      0.305000          0.279748E-03
      0.310000          0.269327E-03
      0.315000          0.258869E-03
      0.320000          0.248597E-03
      0.325000          0.238690E-03
      0.330000          0.229282E-03
      0.335000          0.220444E-03
      0.340000          0.212187E-03
      0.345000          0.204470E-03
      0.350000          0.197205E-03
      0.355000          0.190280E-03
      0.360000          0.183570E-03
      0.365000          0.176956E-03
      0.370000          0.170341E-03
      0.375000          0.163665E-03
      0.380000          0.156908E-03
      0.385000          0.150095E-03
      0.390000          0.143294E-03
      0.395000          0.136610E-03
      0.400000          0.130176E-03
      0.405000          0.124135E-03
      0.410000          0.118633E-03
      0.415000          0.113802E-03
      0.420000          0.109748E-03
      0.425000          0.106543E-03
      0.430000          0.104218E-03
      0.435000          0.102761E-03
      0.440000          0.102119E-03
      0.445000          0.102198E-03
      0.450000          0.102878E-03
      0.455000          0.104013E-03
      0.460000          0.105449E-03
      0.465000          0.107027E-03
      0.470000          0.108598E-03
      0.475000          0.110029E-03
      0.480000          0.111208E-03
      0.485000          0.112053E-03
      0.490000          0.112506E-03
      0.495000          0.112541E-03
      0.500000          0.112157E-03
