 I_abs(s)[cm^-1]/c[mg/ml]
       0.00000          0.140232E-01
      0.500000E-02      0.139677E-01
      0.100000E-01      0.138024E-01
      0.150000E-01      0.135312E-01
      0.200000E-01      0.131600E-01
      0.250000E-01      0.126971E-01
      0.300000E-01      0.121526E-01
      0.350000E-01      0.115381E-01
      0.400000E-01      0.108663E-01
      0.450000E-01      0.101508E-01
      0.500000E-01      0.940540E-02
      0.550000E-01      0.864393E-02
      0.600000E-01      0.787968E-02
      0.650000E-01      0.712514E-02
      0.700000E-01      0.639165E-02
      0.750000E-01      0.568914E-02
      0.800000E-01      0.502599E-02
      0.850000E-01      0.440884E-02
      0.900000E-01      0.384258E-02
      0.950000E-01      0.333035E-02
      0.100000          0.287358E-02
      0.105000          0.247219E-02
      0.110000          0.212467E-02
      0.115000          0.182837E-02
      0.120000          0.157964E-02
      0.125000          0.137416E-02
      0.130000          0.120710E-02
      0.135000          0.107338E-02
      0.140000          0.967909E-03
      0.145000          0.885716E-03
      0.150000          0.822140E-03
      0.155000          0.772944E-03
      0.160000          0.734398E-03
      0.165000          0.703330E-03
      0.170000          0.677149E-03
      0.175000          0.653833E-03
      0.180000          0.631894E-03
      0.185000          0.610328E-03
      0.190000          0.588544E-03
      0.195000          0.566292E-03
      0.200000          0.543583E-03
      0.205000          0.520613E-03
      0.210000          0.497688E-03
      0.215000          0.475169E-03
      0.220000          0.453410E-03
      0.225000          0.432726E-03
      0.230000          0.413359E-03
      0.235000          0.395465E-03
      0.240000          0.379107E-03
      0.245000          0.364258E-03
      0.250000          0.350813E-03
      0.255000          0.338604E-03
      0.260000          0.327418E-03
      0.265000          0.317020E-03
      0.270000          0.307173E-03
      0.275000          0.297651E-03
      0.280000          0.288258E-03
      0.285000          0.278838E-03
      0.290000          0.269282E-03
      0.295000          0.259530E-03
      0.300000          0.249571E-03
      0.305000          0.239438E-03
      0.310000          0.229200E-03
      0.315000          0.218957E-03
      0.320000          0.208827E-03
      0.325000          0.198935E-03
      0.330000          0.189408E-03
      0.335000          0.180361E-03
      0.340000          0.171896E-03
      0.345000          0.164091E-03
      0.350000          0.156998E-03
      0.355000          0.150646E-03
      0.360000          0.145036E-03
      0.365000          0.140143E-03
      0.370000          0.135924E-03
      0.375000          0.132318E-03
      0.380000          0.129250E-03
      0.385000          0.126639E-03
      0.390000          0.124402E-03
      0.395000          0.122457E-03
      0.400000          0.120726E-03
      0.405000          0.119142E-03
      0.410000          0.117648E-03
      0.415000          0.116199E-03
      0.420000          0.114763E-03
      0.425000          0.113321E-03
      0.430000          0.111865E-03
      0.435000          0.110396E-03
      0.440000          0.108926E-03
      0.445000          0.107470E-03
      0.450000          0.106048E-03
      0.455000          0.104682E-03
      0.460000          0.103394E-03
      0.465000          0.102201E-03
      0.470000          0.101120E-03
      0.475000          0.100161E-03
      0.480000          0.993287E-04
      0.485000          0.986237E-04
      0.490000          0.980396E-04
      0.495000          0.975651E-04
      0.500000          0.971843E-04
