 I_abs(s)[cm^-1]/c[mg/ml]
       0.00000          0.138366E-01
      0.500000E-02      0.137749E-01
      0.100000E-01      0.135917E-01
      0.150000E-01      0.132919E-01
      0.200000E-01      0.128841E-01
      0.250000E-01      0.123793E-01
      0.300000E-01      0.117909E-01
      0.350000E-01      0.111343E-01
      0.400000E-01      0.104257E-01
      0.450000E-01      0.968218E-02
      0.500000E-01      0.892035E-02
      0.550000E-01      0.815622E-02
      0.600000E-01      0.740447E-02
      0.650000E-01      0.667806E-02
      0.700000E-01      0.598787E-02
      0.750000E-01      0.534252E-02
      0.800000E-01      0.474821E-02
      0.850000E-01      0.420882E-02
      0.900000E-01      0.372598E-02
      0.950000E-01      0.329931E-02
      0.100000          0.292671E-02
      0.105000          0.260469E-02
      0.110000          0.232873E-02
      0.115000          0.209366E-02
      0.120000          0.189396E-02
      0.125000          0.172414E-02
      0.130000          0.157892E-02
      0.135000          0.145351E-02
      0.140000          0.134370E-02
      0.145000          0.124598E-02
      0.150000          0.115756E-02
      0.155000          0.107631E-02
      0.160000          0.100077E-02
      0.165000          0.929985E-03
      0.170000          0.863469E-03
      0.175000          0.801032E-03
      0.180000          0.742697E-03
      0.185000          0.688592E-03
      0.190000          0.638865E-03
      0.195000          0.593616E-03
      0.200000          0.552856E-03
      0.205000          0.516481E-03
      0.210000          0.484271E-03
      0.215000          0.455900E-03
      0.220000          0.430956E-03
      0.225000          0.408978E-03
      0.230000          0.389482E-03
      0.235000          0.372000E-03
      0.240000          0.356100E-03
      0.245000          0.341418E-03
      0.250000          0.327660E-03
      0.255000          0.314619E-03
      0.260000          0.302164E-03
      0.265000          0.290237E-03
      0.270000          0.278835E-03
      0.275000          0.267997E-03
      0.280000          0.257783E-03
      0.285000          0.248257E-03
      0.290000          0.239474E-03
      0.295000          0.231464E-03
      0.300000          0.224230E-03
      0.305000          0.217738E-03
      0.310000          0.211922E-03
      0.315000          0.206691E-03
      0.320000          0.201929E-03
      0.325000          0.197510E-03
      0.330000          0.193309E-03
      0.335000          0.189205E-03
      0.340000          0.185098E-03
      0.345000          0.180910E-03
      0.350000          0.176588E-03
      0.355000          0.172112E-03
      0.360000          0.167487E-03
      0.365000          0.162744E-03
      0.370000          0.157932E-03
      0.375000          0.153115E-03
      0.380000          0.148361E-03
      0.385000          0.143736E-03
      0.390000          0.139302E-03
      0.395000          0.135105E-03
      0.400000          0.131177E-03
      0.405000          0.127533E-03
      0.410000          0.124170E-03
      0.415000          0.121069E-03
      0.420000          0.118199E-03
      0.425000          0.115519E-03
      0.430000          0.112986E-03
      0.435000          0.110557E-03
      0.440000          0.108191E-03
      0.445000          0.105860E-03
      0.450000          0.103541E-03
      0.455000          0.101229E-03
      0.460000          0.989278E-04
      0.465000          0.966532E-04
      0.470000          0.944314E-04
      0.475000          0.922952E-04
      0.480000          0.902813E-04
      0.485000          0.884269E-04
      0.490000          0.867667E-04
      0.495000          0.853298E-04
      0.500000          0.841377E-04
