 I_abs(s)[cm^-1]/c[mg/ml]
       0.00000          0.140856E-01
      0.500000E-02      0.140319E-01
      0.100000E-01      0.138719E-01
      0.150000E-01      0.136092E-01
      0.200000E-01      0.132496E-01
      0.250000E-01      0.128010E-01
      0.300000E-01      0.122731E-01
      0.350000E-01      0.116769E-01
      0.400000E-01      0.110246E-01
      0.450000E-01      0.103290E-01
      0.500000E-01      0.960340E-02
      0.550000E-01      0.886069E-02
      0.600000E-01      0.811347E-02
      0.650000E-01      0.737349E-02
      0.700000E-01      0.665146E-02
      0.750000E-01      0.595675E-02
      0.800000E-01      0.529729E-02
      0.850000E-01      0.467946E-02
      0.900000E-01      0.410802E-02
      0.950000E-01      0.358620E-02
      0.100000          0.311569E-02
      0.105000          0.269684E-02
      0.110000          0.232876E-02
      0.115000          0.200950E-02
      0.120000          0.173626E-02
      0.125000          0.150557E-02
      0.130000          0.131350E-02
      0.135000          0.115582E-02
      0.140000          0.102818E-02
      0.145000          0.926260E-03
      0.150000          0.845877E-03
      0.155000          0.783110E-03
      0.160000          0.734355E-03
      0.165000          0.696392E-03
      0.170000          0.666405E-03
      0.175000          0.642004E-03
      0.180000          0.621214E-03
      0.185000          0.602462E-03
      0.190000          0.584550E-03
      0.195000          0.566613E-03
      0.200000          0.548087E-03
      0.205000          0.528659E-03
      0.210000          0.508224E-03
      0.215000          0.486844E-03
      0.220000          0.464703E-03
      0.225000          0.442070E-03
      0.230000          0.419267E-03
      0.235000          0.396636E-03
      0.240000          0.374515E-03
      0.245000          0.353220E-03
      0.250000          0.333029E-03
      0.255000          0.314169E-03
      0.260000          0.296814E-03
      0.265000          0.281081E-03
      0.270000          0.267028E-03
      0.275000          0.254664E-03
      0.280000          0.243945E-03
      0.285000          0.234790E-03
      0.290000          0.227082E-03
      0.295000          0.220680E-03
      0.300000          0.215425E-03
      0.305000          0.211146E-03
      0.310000          0.207670E-03
      0.315000          0.204825E-03
      0.320000          0.202446E-03
      0.325000          0.200382E-03
      0.330000          0.198491E-03
      0.335000          0.196652E-03
      0.340000          0.194759E-03
      0.345000          0.192726E-03
      0.350000          0.190486E-03
      0.355000          0.187990E-03
      0.360000          0.185207E-03
      0.365000          0.182122E-03
      0.370000          0.178738E-03
      0.375000          0.175068E-03
      0.380000          0.171139E-03
      0.385000          0.166987E-03
      0.390000          0.162655E-03
      0.395000          0.158189E-03
      0.400000          0.153641E-03
      0.405000          0.149061E-03
      0.410000          0.144497E-03
      0.415000          0.139996E-03
      0.420000          0.135597E-03
      0.425000          0.131338E-03
      0.430000          0.127248E-03
      0.435000          0.123350E-03
      0.440000          0.119662E-03
      0.445000          0.116197E-03
      0.450000          0.112962E-03
      0.455000          0.109961E-03
      0.460000          0.107196E-03
      0.465000          0.104665E-03
      0.470000          0.102366E-03
      0.475000          0.100294E-03
      0.480000          0.984455E-04
      0.485000          0.968144E-04
      0.490000          0.953943E-04
      0.495000          0.941774E-04
      0.500000          0.931543E-04
