 I_abs(s)[cm^-1]/c[mg/ml]
       0.00000          0.144396E-01
      0.500000E-02      0.143647E-01
      0.100000E-01      0.141424E-01
      0.150000E-01      0.137811E-01
      0.200000E-01      0.132937E-01
      0.250000E-01      0.126969E-01
      0.300000E-01      0.120108E-01
      0.350000E-01      0.112568E-01
      0.400000E-01      0.104569E-01
      0.450000E-01      0.963262E-02
      0.500000E-01      0.880362E-02
      0.550000E-01      0.798727E-02
      0.600000E-01      0.719801E-02
      0.650000E-01      0.644710E-02
      0.700000E-01      0.574266E-02
      0.750000E-01      0.508988E-02
      0.800000E-01      0.449138E-02
      0.850000E-01      0.394768E-02
      0.900000E-01      0.345773E-02
      0.950000E-01      0.301934E-02
      0.100000          0.262963E-02
      0.105000          0.228538E-02
      0.110000          0.198324E-02
      0.115000          0.171990E-02
      0.120000          0.149217E-02
      0.125000          0.129700E-02
      0.130000          0.113142E-02
      0.135000          0.992587E-03
      0.140000          0.877696E-03
      0.145000          0.783991E-03
      0.150000          0.708766E-03
      0.155000          0.649387E-03
      0.160000          0.603322E-03
      0.165000          0.568183E-03
      0.170000          0.541760E-03
      0.175000          0.522056E-03
      0.180000          0.507307E-03
      0.185000          0.495991E-03
      0.190000          0.486829E-03
      0.195000          0.478777E-03
      0.200000          0.471013E-03
      0.205000          0.462918E-03
      0.210000          0.454068E-03
      0.215000          0.444209E-03
      0.220000          0.433245E-03
      0.225000          0.421221E-03
      0.230000          0.408299E-03
      0.235000          0.394735E-03
      0.240000          0.380852E-03
      0.245000          0.367004E-03
      0.250000          0.353547E-03
      0.255000          0.340801E-03
      0.260000          0.329029E-03
      0.265000          0.318405E-03
      0.270000          0.309009E-03
      0.275000          0.300822E-03
      0.280000          0.293731E-03
      0.285000          0.287546E-03
      0.290000          0.282024E-03
      0.295000          0.276897E-03
      0.300000          0.271894E-03
      0.305000          0.266769E-03
      0.310000          0.261319E-03
      0.315000          0.255397E-03
      0.320000          0.248918E-03
      0.325000          0.241859E-03
      0.330000          0.234250E-03
      0.335000          0.226167E-03
      0.340000          0.217717E-03
      0.345000          0.209029E-03
      0.350000          0.200240E-03
      0.355000          0.191487E-03
      0.360000          0.182900E-03
      0.365000          0.174596E-03
      0.370000          0.166679E-03
      0.375000          0.159237E-03
      0.380000          0.152340E-03
      0.385000          0.146041E-03
      0.390000          0.140377E-03
      0.395000          0.135363E-03
      0.400000          0.131002E-03
      0.405000          0.127275E-03
      0.410000          0.124150E-03
      0.415000          0.121580E-03
      0.420000          0.119507E-03
      0.425000          0.117868E-03
      0.430000          0.116595E-03
      0.435000          0.115624E-03
      0.440000          0.114895E-03
      0.445000          0.114357E-03
      0.450000          0.113967E-03
      0.455000          0.113693E-03
      0.460000          0.113511E-03
      0.465000          0.113404E-03
      0.470000          0.113357E-03
      0.475000          0.113358E-03
      0.480000          0.113392E-03
      0.485000          0.113442E-03
      0.490000          0.113484E-03
      0.495000          0.113494E-03
      0.500000          0.113441E-03
