 I_abs(s)[cm^-1]/c[mg/ml]
       0.00000          0.141639E-01
      0.500000E-02      0.141071E-01
      0.100000E-01      0.139377E-01
      0.150000E-01      0.136597E-01
      0.200000E-01      0.132791E-01
      0.250000E-01      0.128044E-01
      0.300000E-01      0.122459E-01
      0.350000E-01      0.116152E-01
      0.400000E-01      0.109256E-01
      0.450000E-01      0.101909E-01
      0.500000E-01      0.942518E-02
      0.550000E-01      0.864277E-02
      0.600000E-01      0.785739E-02
      0.650000E-01      0.708197E-02
      0.700000E-01      0.632832E-02
      0.750000E-01      0.560687E-02
      0.800000E-01      0.492640E-02
      0.850000E-01      0.429399E-02
      0.900000E-01      0.371487E-02
      0.950000E-01      0.319245E-02
      0.100000          0.272839E-02
      0.105000          0.232269E-02
      0.110000          0.197388E-02
      0.115000          0.167918E-02
      0.120000          0.143478E-02
      0.125000          0.123606E-02
      0.130000          0.107783E-02
      0.135000          0.954587E-03
      0.140000          0.860757E-03
      0.145000          0.790876E-03
      0.150000          0.739782E-03
      0.155000          0.702754E-03
      0.160000          0.675619E-03
      0.165000          0.654826E-03
      0.170000          0.637474E-03
      0.175000          0.621321E-03
      0.180000          0.604753E-03
      0.185000          0.586733E-03
      0.190000          0.566733E-03
      0.195000          0.544649E-03
      0.200000          0.520713E-03
      0.205000          0.495403E-03
      0.210000          0.469350E-03
      0.215000          0.443258E-03
      0.220000          0.417837E-03
      0.225000          0.393736E-03
      0.230000          0.371507E-03
      0.235000          0.351567E-03
      0.240000          0.334184E-03
      0.245000          0.319473E-03
      0.250000          0.307402E-03
      0.255000          0.297807E-03
      0.260000          0.290416E-03
      0.265000          0.284875E-03
      0.270000          0.280774E-03
      0.275000          0.277683E-03
      0.280000          0.275171E-03
      0.285000          0.272835E-03
      0.290000          0.270322E-03
      0.295000          0.267334E-03
      0.300000          0.263651E-03
      0.305000          0.259122E-03
      0.310000          0.253677E-03
      0.315000          0.247312E-03
      0.320000          0.240089E-03
      0.325000          0.232120E-03
      0.330000          0.223558E-03
      0.335000          0.214583E-03
      0.340000          0.205389E-03
      0.345000          0.196172E-03
      0.350000          0.187118E-03
      0.355000          0.178397E-03
      0.360000          0.170154E-03
      0.365000          0.162503E-03
      0.370000          0.155527E-03
      0.375000          0.149276E-03
      0.380000          0.143768E-03
      0.385000          0.138992E-03
      0.390000          0.134911E-03
      0.395000          0.131468E-03
      0.400000          0.128592E-03
      0.405000          0.126200E-03
      0.410000          0.124204E-03
      0.415000          0.122518E-03
      0.420000          0.121058E-03
      0.425000          0.119748E-03
      0.430000          0.118522E-03
      0.435000          0.117326E-03
      0.440000          0.116119E-03
      0.445000          0.114873E-03
      0.450000          0.113573E-03
      0.455000          0.112215E-03
      0.460000          0.110807E-03
      0.465000          0.109364E-03
      0.470000          0.107907E-03
      0.475000          0.106464E-03
      0.480000          0.105063E-03
      0.485000          0.103734E-03
      0.490000          0.102503E-03
      0.495000          0.101397E-03
      0.500000          0.100435E-03
