 I_abs(s)[cm^-1]/c[mg/ml]
       0.00000          0.144713E-01
      0.500000E-02      0.144197E-01
      0.100000E-01      0.142656E-01
      0.150000E-01      0.140121E-01
      0.200000E-01      0.136641E-01
      0.250000E-01      0.132279E-01
      0.300000E-01      0.127118E-01
      0.350000E-01      0.121250E-01
      0.400000E-01      0.114782E-01
      0.450000E-01      0.107825E-01
      0.500000E-01      0.100497E-01
      0.550000E-01      0.929176E-02
      0.600000E-01      0.852048E-02
      0.650000E-01      0.774734E-02
      0.700000E-01      0.698315E-02
      0.750000E-01      0.623790E-02
      0.800000E-01      0.552051E-02
      0.850000E-01      0.483871E-02
      0.900000E-01      0.419894E-02
      0.950000E-01      0.360629E-02
      0.100000          0.306446E-02
      0.105000          0.257582E-02
      0.110000          0.214143E-02
      0.115000          0.176114E-02
      0.120000          0.143375E-02
      0.125000          0.115707E-02
      0.130000          0.928125E-03
      0.135000          0.743318E-03
      0.140000          0.598557E-03
      0.145000          0.489440E-03
      0.150000          0.411391E-03
      0.155000          0.359807E-03
      0.160000          0.330178E-03
      0.165000          0.318191E-03
      0.170000          0.319817E-03
      0.175000          0.331382E-03
      0.180000          0.349610E-03
      0.185000          0.371658E-03
      0.190000          0.395123E-03
      0.195000          0.418048E-03
      0.200000          0.438896E-03
      0.205000          0.456536E-03
      0.210000          0.470197E-03
      0.215000          0.479436E-03
      0.220000          0.484090E-03
      0.225000          0.484227E-03
      0.230000          0.480107E-03
      0.235000          0.472127E-03
      0.240000          0.460789E-03
      0.245000          0.446655E-03
      0.250000          0.430314E-03
      0.255000          0.412356E-03
      0.260000          0.393344E-03
      0.265000          0.373800E-03
      0.270000          0.354188E-03
      0.275000          0.334905E-03
      0.280000          0.316279E-03
      0.285000          0.298565E-03
      0.290000          0.281950E-03
      0.295000          0.266555E-03
      0.300000          0.252443E-03
      0.305000          0.239625E-03
      0.310000          0.228071E-03
      0.315000          0.217719E-03
      0.320000          0.208481E-03
      0.325000          0.200254E-03
      0.330000          0.192926E-03
      0.335000          0.186381E-03
      0.340000          0.180510E-03
      0.345000          0.175209E-03
      0.350000          0.170384E-03
      0.355000          0.165954E-03
      0.360000          0.161853E-03
      0.365000          0.158025E-03
      0.370000          0.154430E-03
      0.375000          0.151037E-03
      0.380000          0.147825E-03
      0.385000          0.144784E-03
      0.390000          0.141905E-03
      0.395000          0.139186E-03
      0.400000          0.136628E-03
      0.405000          0.134230E-03
      0.410000          0.131992E-03
      0.415000          0.129911E-03
      0.420000          0.127983E-03
      0.425000          0.126201E-03
      0.430000          0.124553E-03
      0.435000          0.123028E-03
      0.440000          0.121609E-03
      0.445000          0.120279E-03
      0.450000          0.119021E-03
      0.455000          0.117816E-03
      0.460000          0.116645E-03
      0.465000          0.115491E-03
      0.470000          0.114339E-03
      0.475000          0.113175E-03
      0.480000          0.111988E-03
      0.485000          0.110772E-03
      0.490000          0.109521E-03
      0.495000          0.108234E-03
      0.500000          0.106913E-03
