 I_abs(s)[cm^-1]/c[mg/ml]
       0.00000          0.140935E-01
      0.500000E-02      0.140259E-01
      0.100000E-01      0.138252E-01
      0.150000E-01      0.134968E-01
      0.200000E-01      0.130498E-01
      0.250000E-01      0.124963E-01
      0.300000E-01      0.118508E-01
      0.350000E-01      0.111301E-01
      0.400000E-01      0.103521E-01
      0.450000E-01      0.953551E-02
      0.500000E-01      0.869892E-02
      0.550000E-01      0.786024E-02
      0.600000E-01      0.703612E-02
      0.650000E-01      0.624141E-02
      0.700000E-01      0.548875E-02
      0.750000E-01      0.478833E-02
      0.800000E-01      0.414772E-02
      0.850000E-01      0.357183E-02
      0.900000E-01      0.306301E-02
      0.950000E-01      0.262123E-02
      0.100000          0.224438E-02
      0.105000          0.192859E-02
      0.110000          0.166864E-02
      0.115000          0.145835E-02
      0.120000          0.129096E-02
      0.125000          0.115954E-02
      0.130000          0.105731E-02
      0.135000          0.977911E-03
      0.140000          0.915625E-03
      0.145000          0.865526E-03
      0.150000          0.823564E-03
      0.155000          0.786580E-03
      0.160000          0.752282E-03
      0.165000          0.719158E-03
      0.170000          0.686372E-03
      0.175000          0.653629E-03
      0.180000          0.621040E-03
      0.185000          0.588977E-03
      0.190000          0.557953E-03
      0.195000          0.528506E-03
      0.200000          0.501117E-03
      0.205000          0.476147E-03
      0.210000          0.453800E-03
      0.215000          0.434112E-03
      0.220000          0.416959E-03
      0.225000          0.402078E-03
      0.230000          0.389109E-03
      0.235000          0.377628E-03
      0.240000          0.367195E-03
      0.245000          0.357394E-03
      0.250000          0.347863E-03
      0.255000          0.338319E-03
      0.260000          0.328578E-03
      0.265000          0.318552E-03
      0.270000          0.308249E-03
      0.275000          0.297760E-03
      0.280000          0.287240E-03
      0.285000          0.276884E-03
      0.290000          0.266904E-03
      0.295000          0.257511E-03
      0.300000          0.248886E-03
      0.305000          0.241171E-03
      0.310000          0.234456E-03
      0.315000          0.228771E-03
      0.320000          0.224090E-03
      0.325000          0.220334E-03
      0.330000          0.217378E-03
      0.335000          0.215065E-03
      0.340000          0.213219E-03
      0.345000          0.211656E-03
      0.350000          0.210201E-03
      0.355000          0.208697E-03
      0.360000          0.207014E-03
      0.365000          0.205055E-03
      0.370000          0.202758E-03
      0.375000          0.200100E-03
      0.380000          0.197090E-03
      0.385000          0.193765E-03
      0.390000          0.190186E-03
      0.395000          0.186429E-03
      0.400000          0.182576E-03
      0.405000          0.178711E-03
      0.410000          0.174910E-03
      0.415000          0.171236E-03
      0.420000          0.167739E-03
      0.425000          0.164448E-03
      0.430000          0.161373E-03
      0.435000          0.158507E-03
      0.440000          0.155826E-03
      0.445000          0.153293E-03
      0.450000          0.150862E-03
      0.455000          0.148481E-03
      0.460000          0.146098E-03
      0.465000          0.143663E-03
      0.470000          0.141133E-03
      0.475000          0.138477E-03
      0.480000          0.135671E-03
      0.485000          0.132708E-03
      0.490000          0.129593E-03
      0.495000          0.126343E-03
      0.500000          0.122988E-03
