 I_abs(s)[cm^-1]/c[mg/ml]
       0.00000          0.142975E-01
      0.500000E-02      0.142342E-01
      0.100000E-01      0.140459E-01
      0.150000E-01      0.137377E-01
      0.200000E-01      0.133178E-01
      0.250000E-01      0.127973E-01
      0.300000E-01      0.121895E-01
      0.350000E-01      0.115095E-01
      0.400000E-01      0.107740E-01
      0.450000E-01      0.999972E-02
      0.500000E-01      0.920386E-02
      0.550000E-01      0.840275E-02
      0.600000E-01      0.761165E-02
      0.650000E-01      0.684417E-02
      0.700000E-01      0.611198E-02
      0.750000E-01      0.542453E-02
      0.800000E-01      0.478891E-02
      0.850000E-01      0.420983E-02
      0.900000E-01      0.368974E-02
      0.950000E-01      0.322893E-02
      0.100000          0.282588E-02
      0.105000          0.247748E-02
      0.110000          0.217944E-02
      0.115000          0.192664E-02
      0.120000          0.171344E-02
      0.125000          0.153409E-02
      0.130000          0.138293E-02
      0.135000          0.125470E-02
      0.140000          0.114470E-02
      0.145000          0.104890E-02
      0.150000          0.964011E-03
      0.155000          0.887482E-03
      0.160000          0.817479E-03
      0.165000          0.752792E-03
      0.170000          0.692736E-03
      0.175000          0.637025E-03
      0.180000          0.585655E-03
      0.185000          0.538779E-03
      0.190000          0.496602E-03
      0.195000          0.459295E-03
      0.200000          0.426925E-03
      0.205000          0.399419E-03
      0.210000          0.376547E-03
      0.215000          0.357921E-03
      0.220000          0.343022E-03
      0.225000          0.331229E-03
      0.230000          0.321869E-03
      0.235000          0.314253E-03
      0.240000          0.307727E-03
      0.245000          0.301707E-03
      0.250000          0.295707E-03
      0.255000          0.289363E-03
      0.260000          0.282436E-03
      0.265000          0.274816E-03
      0.270000          0.266505E-03
      0.275000          0.257603E-03
      0.280000          0.248280E-03
      0.285000          0.238753E-03
      0.290000          0.229258E-03
      0.295000          0.220026E-03
      0.300000          0.211261E-03
      0.305000          0.203128E-03
      0.310000          0.195739E-03
      0.315000          0.189151E-03
      0.320000          0.183368E-03
      0.325000          0.178348E-03
      0.330000          0.174010E-03
      0.335000          0.170249E-03
      0.340000          0.166946E-03
      0.345000          0.163983E-03
      0.350000          0.161252E-03
      0.355000          0.158662E-03
      0.360000          0.156147E-03
      0.365000          0.153669E-03
      0.370000          0.151213E-03
      0.375000          0.148788E-03
      0.380000          0.146420E-03
      0.385000          0.144147E-03
      0.390000          0.142010E-03
      0.395000          0.140045E-03
      0.400000          0.138282E-03
      0.405000          0.136735E-03
      0.410000          0.135404E-03
      0.415000          0.134270E-03
      0.420000          0.133298E-03
      0.425000          0.132439E-03
      0.430000          0.131635E-03
      0.435000          0.130823E-03
      0.440000          0.129940E-03
      0.445000          0.128930E-03
      0.450000          0.127749E-03
      0.455000          0.126365E-03
      0.460000          0.124764E-03
      0.465000          0.122953E-03
      0.470000          0.120954E-03
      0.475000          0.118808E-03
      0.480000          0.116569E-03
      0.485000          0.114300E-03
      0.490000          0.112070E-03
      0.495000          0.109949E-03
      0.500000          0.108001E-03
