 I_abs(s)[cm^-1]/c[mg/ml]
       0.00000          0.141091E-01
      0.500000E-02      0.140545E-01
      0.100000E-01      0.138918E-01
      0.150000E-01      0.136245E-01
      0.200000E-01      0.132579E-01
      0.250000E-01      0.127998E-01
      0.300000E-01      0.122593E-01
      0.350000E-01      0.116472E-01
      0.400000E-01      0.109755E-01
      0.450000E-01      0.102569E-01
      0.500000E-01      0.950461E-02
      0.550000E-01      0.873211E-02
      0.600000E-01      0.795249E-02
      0.650000E-01      0.717834E-02
      0.700000E-01      0.642138E-02
      0.750000E-01      0.569220E-02
      0.800000E-01      0.500007E-02
      0.850000E-01      0.435272E-02
      0.900000E-01      0.375631E-02
      0.950000E-01      0.321530E-02
      0.100000          0.273252E-02
      0.105000          0.230915E-02
      0.110000          0.194489E-02
      0.115000          0.163804E-02
      0.120000          0.138571E-02
      0.125000          0.118399E-02
      0.130000          0.102817E-02
      0.135000          0.912964E-03
      0.140000          0.832715E-03
      0.145000          0.781610E-03
      0.150000          0.753871E-03
      0.155000          0.743931E-03
      0.160000          0.746580E-03
      0.165000          0.757086E-03
      0.170000          0.771287E-03
      0.175000          0.785652E-03
      0.180000          0.797313E-03
      0.185000          0.804073E-03
      0.190000          0.804386E-03
      0.195000          0.797318E-03
      0.200000          0.782492E-03
      0.205000          0.760016E-03
      0.210000          0.730404E-03
      0.215000          0.694497E-03
      0.220000          0.653377E-03
      0.225000          0.608282E-03
      0.230000          0.560534E-03
      0.235000          0.511464E-03
      0.240000          0.462359E-03
      0.245000          0.414405E-03
      0.250000          0.368653E-03
      0.255000          0.325988E-03
      0.260000          0.287113E-03
      0.265000          0.252542E-03
      0.270000          0.222601E-03
      0.275000          0.197434E-03
      0.280000          0.177023E-03
      0.285000          0.161203E-03
      0.290000          0.149686E-03
      0.295000          0.142086E-03
      0.300000          0.137946E-03
      0.305000          0.136757E-03
      0.310000          0.137986E-03
      0.315000          0.141097E-03
      0.320000          0.145568E-03
      0.325000          0.150905E-03
      0.330000          0.156659E-03
      0.335000          0.162431E-03
      0.340000          0.167880E-03
      0.345000          0.172727E-03
      0.350000          0.176754E-03
      0.355000          0.179806E-03
      0.360000          0.181783E-03
      0.365000          0.182642E-03
      0.370000          0.182383E-03
      0.375000          0.181051E-03
      0.380000          0.178724E-03
      0.385000          0.175505E-03
      0.390000          0.171522E-03
      0.395000          0.166911E-03
      0.400000          0.161819E-03
      0.405000          0.156394E-03
      0.410000          0.150780E-03
      0.415000          0.145113E-03
      0.420000          0.139519E-03
      0.425000          0.134107E-03
      0.430000          0.128973E-03
      0.435000          0.124194E-03
      0.440000          0.119827E-03
      0.445000          0.115915E-03
      0.450000          0.112479E-03
      0.455000          0.109525E-03
      0.460000          0.107044E-03
      0.465000          0.105014E-03
      0.470000          0.103401E-03
      0.475000          0.102163E-03
      0.480000          0.101252E-03
      0.485000          0.100614E-03
      0.490000          0.100196E-03
      0.495000          0.999437E-04
      0.500000          0.998069E-04
