 I_abs(s)[cm^-1]/c[mg/ml]
       0.00000          0.143764E-01
      0.500000E-02      0.143012E-01
      0.100000E-01      0.140782E-01
      0.150000E-01      0.137146E-01
      0.200000E-01      0.132225E-01
      0.250000E-01      0.126176E-01
      0.300000E-01      0.119185E-01
      0.350000E-01      0.111464E-01
      0.400000E-01      0.103233E-01
      0.450000E-01      0.947123E-02
      0.500000E-01      0.861159E-02
      0.550000E-01      0.776390E-02
      0.600000E-01      0.694531E-02
      0.650000E-01      0.617001E-02
      0.700000E-01      0.544892E-02
      0.750000E-01      0.478963E-02
      0.800000E-01      0.419643E-02
      0.850000E-01      0.367060E-02
      0.900000E-01      0.321079E-02
      0.950000E-01      0.281349E-02
      0.100000          0.247359E-02
      0.105000          0.218491E-02
      0.110000          0.194070E-02
      0.115000          0.173415E-02
      0.120000          0.155874E-02
      0.125000          0.140855E-02
      0.130000          0.127844E-02
      0.135000          0.116418E-02
      0.140000          0.106244E-02
      0.145000          0.970781E-03
      0.150000          0.887510E-03
      0.155000          0.811581E-03
      0.160000          0.742432E-03
      0.165000          0.679834E-03
      0.170000          0.623754E-03
      0.175000          0.574234E-03
      0.180000          0.531296E-03
      0.185000          0.494873E-03
      0.190000          0.464770E-03
      0.195000          0.440647E-03
      0.200000          0.422019E-03
      0.205000          0.408273E-03
      0.210000          0.398700E-03
      0.215000          0.392522E-03
      0.220000          0.388935E-03
      0.225000          0.387144E-03
      0.230000          0.386389E-03
      0.235000          0.385982E-03
      0.240000          0.385328E-03
      0.245000          0.383940E-03
      0.250000          0.381451E-03
      0.255000          0.377624E-03
      0.260000          0.372341E-03
      0.265000          0.365604E-03
      0.270000          0.357520E-03
      0.275000          0.348280E-03
      0.280000          0.338141E-03
      0.285000          0.327403E-03
      0.290000          0.316378E-03
      0.295000          0.305375E-03
      0.300000          0.294670E-03
      0.305000          0.284492E-03
      0.310000          0.275008E-03
      0.315000          0.266318E-03
      0.320000          0.258448E-03
      0.325000          0.251362E-03
      0.330000          0.244964E-03
      0.335000          0.239115E-03
      0.340000          0.233651E-03
      0.345000          0.228396E-03
      0.350000          0.223182E-03
      0.355000          0.217865E-03
      0.360000          0.212330E-03
      0.365000          0.206508E-03
      0.370000          0.200373E-03
      0.375000          0.193943E-03
      0.380000          0.187277E-03
      0.385000          0.180467E-03
      0.390000          0.173624E-03
      0.395000          0.166877E-03
      0.400000          0.160352E-03
      0.405000          0.154170E-03
      0.410000          0.148433E-03
      0.415000          0.143222E-03
      0.420000          0.138593E-03
      0.425000          0.134572E-03
      0.430000          0.131158E-03
      0.435000          0.128325E-03
      0.440000          0.126027E-03
      0.445000          0.124195E-03
      0.450000          0.122753E-03
      0.455000          0.121612E-03
      0.460000          0.120682E-03
      0.465000          0.119872E-03
      0.470000          0.119095E-03
      0.475000          0.118273E-03
      0.480000          0.117336E-03
      0.485000          0.116229E-03
      0.490000          0.114911E-03
      0.495000          0.113354E-03
      0.500000          0.111549E-03
