 I_abs(s)[cm^-1]/c[mg/ml]
       0.00000          0.143369E-01
      0.500000E-02      0.142622E-01
      0.100000E-01      0.140406E-01
      0.150000E-01      0.136802E-01
      0.200000E-01      0.131936E-01
      0.250000E-01      0.125974E-01
      0.300000E-01      0.119114E-01
      0.350000E-01      0.111572E-01
      0.400000E-01      0.103572E-01
      0.450000E-01      0.953330E-02
      0.500000E-01      0.870616E-02
      0.550000E-01      0.789405E-02
      0.600000E-01      0.711235E-02
      0.650000E-01      0.637311E-02
      0.700000E-01      0.568492E-02
      0.750000E-01      0.505302E-02
      0.800000E-01      0.447957E-02
      0.850000E-01      0.396416E-02
      0.900000E-01      0.350433E-02
      0.950000E-01      0.309619E-02
      0.100000          0.273499E-02
      0.105000          0.241569E-02
      0.110000          0.213336E-02
      0.115000          0.188350E-02
      0.120000          0.166227E-02
      0.125000          0.146650E-02
      0.130000          0.129372E-02
      0.135000          0.114203E-02
      0.140000          0.100994E-02
      0.145000          0.896244E-03
      0.150000          0.799787E-03
      0.155000          0.719391E-03
      0.160000          0.653740E-03
      0.165000          0.601344E-03
      0.170000          0.560547E-03
      0.175000          0.529575E-03
      0.180000          0.506608E-03
      0.185000          0.489878E-03
      0.190000          0.477747E-03
      0.195000          0.468794E-03
      0.200000          0.461855E-03
      0.205000          0.456058E-03
      0.210000          0.450806E-03
      0.215000          0.445752E-03
      0.220000          0.440742E-03
      0.225000          0.435751E-03
      0.230000          0.430813E-03
      0.235000          0.425966E-03
      0.240000          0.421198E-03
      0.245000          0.416420E-03
      0.250000          0.411456E-03
      0.255000          0.406056E-03
      0.260000          0.399917E-03
      0.265000          0.392722E-03
      0.270000          0.384184E-03
      0.275000          0.374083E-03
      0.280000          0.362300E-03
      0.285000          0.348840E-03
      0.290000          0.333837E-03
      0.295000          0.317553E-03
      0.300000          0.300350E-03
      0.305000          0.282667E-03
      0.310000          0.264980E-03
      0.315000          0.247761E-03
      0.320000          0.231443E-03
      0.325000          0.216388E-03
      0.330000          0.202864E-03
      0.335000          0.191030E-03
      0.340000          0.180940E-03
      0.345000          0.172542E-03
      0.350000          0.165703E-03
      0.355000          0.160224E-03
      0.360000          0.155867E-03
      0.365000          0.152379E-03
      0.370000          0.149514E-03
      0.375000          0.147051E-03
      0.380000          0.144804E-03
      0.385000          0.142631E-03
      0.390000          0.140433E-03
      0.395000          0.138150E-03
      0.400000          0.135758E-03
      0.405000          0.133251E-03
      0.410000          0.130641E-03
      0.415000          0.127945E-03
      0.420000          0.125178E-03
      0.425000          0.122350E-03
      0.430000          0.119464E-03
      0.435000          0.116520E-03
      0.440000          0.113512E-03
      0.445000          0.110438E-03
      0.450000          0.107302E-03
      0.455000          0.104116E-03
      0.460000          0.100907E-03
      0.465000          0.977134E-04
      0.470000          0.945868E-04
      0.475000          0.915889E-04
      0.480000          0.887867E-04
      0.485000          0.862479E-04
      0.490000          0.840344E-04
      0.495000          0.821974E-04
      0.500000          0.807722E-04
