 I_abs(s)[cm^-1]/c[mg/ml]
       0.00000          0.144654E-01
      0.500000E-02      0.144077E-01
      0.100000E-01      0.142364E-01
      0.150000E-01      0.139564E-01
      0.200000E-01      0.135757E-01
      0.250000E-01      0.131049E-01
      0.300000E-01      0.125566E-01
      0.350000E-01      0.119448E-01
      0.400000E-01      0.112846E-01
      0.450000E-01      0.105908E-01
      0.500000E-01      0.987807E-02
      0.550000E-01      0.915978E-02
      0.600000E-01      0.844803E-02
      0.650000E-01      0.775315E-02
      0.700000E-01      0.708359E-02
      0.750000E-01      0.644582E-02
      0.800000E-01      0.584446E-02
      0.850000E-01      0.528242E-02
      0.900000E-01      0.476111E-02
      0.950000E-01      0.428069E-02
      0.100000          0.384039E-02
      0.105000          0.343872E-02
      0.110000          0.307375E-02
      0.115000          0.274327E-02
      0.120000          0.244497E-02
      0.125000          0.217657E-02
      0.130000          0.193583E-02
      0.135000          0.172064E-02
      0.140000          0.152899E-02
      0.145000          0.135898E-02
      0.150000          0.120881E-02
      0.155000          0.107674E-02
      0.160000          0.961085E-03
      0.165000          0.860221E-03
      0.170000          0.772565E-03
      0.175000          0.696592E-03
      0.180000          0.630840E-03
      0.185000          0.573931E-03
      0.190000          0.524582E-03
      0.195000          0.481620E-03
      0.200000          0.443992E-03
      0.205000          0.410769E-03
      0.210000          0.381158E-03
      0.215000          0.354488E-03
      0.220000          0.330217E-03
      0.225000          0.307917E-03
      0.230000          0.287267E-03
      0.235000          0.268041E-03
      0.240000          0.250094E-03
      0.245000          0.233349E-03
      0.250000          0.217781E-03
      0.255000          0.203403E-03
      0.260000          0.190250E-03
      0.265000          0.178363E-03
      0.270000          0.167780E-03
      0.275000          0.158520E-03
      0.280000          0.150578E-03
      0.285000          0.143919E-03
      0.290000          0.138474E-03
      0.295000          0.134146E-03
      0.300000          0.130811E-03
      0.305000          0.128324E-03
      0.310000          0.126534E-03
      0.315000          0.125287E-03
      0.320000          0.124436E-03
      0.325000          0.123851E-03
      0.330000          0.123420E-03
      0.335000          0.123055E-03
      0.340000          0.122691E-03
      0.345000          0.122283E-03
      0.350000          0.121804E-03
      0.355000          0.121239E-03
      0.360000          0.120581E-03
      0.365000          0.119825E-03
      0.370000          0.118967E-03
      0.375000          0.118001E-03
      0.380000          0.116920E-03
      0.385000          0.115713E-03
      0.390000          0.114372E-03
      0.395000          0.112893E-03
      0.400000          0.111277E-03
      0.405000          0.109534E-03
      0.410000          0.107681E-03
      0.415000          0.105748E-03
      0.420000          0.103768E-03
      0.425000          0.101782E-03
      0.430000          0.998353E-04
      0.435000          0.979688E-04
      0.440000          0.962216E-04
      0.445000          0.946253E-04
      0.450000          0.932032E-04
      0.455000          0.919686E-04
      0.460000          0.909254E-04
      0.465000          0.900684E-04
      0.470000          0.893855E-04
      0.475000          0.888587E-04
      0.480000          0.884669E-04
      0.485000          0.881875E-04
      0.490000          0.879975E-04
      0.495000          0.878750E-04
      0.500000          0.877995E-04
