 I_abs(s)[cm^-1]/c[mg/ml]
       0.00000          0.146002E-01
      0.500000E-02      0.145321E-01
      0.100000E-01      0.143300E-01
      0.150000E-01      0.140002E-01
      0.200000E-01      0.135528E-01
      0.250000E-01      0.130010E-01
      0.300000E-01      0.123609E-01
      0.350000E-01      0.116501E-01
      0.400000E-01      0.108875E-01
      0.450000E-01      0.100917E-01
      0.500000E-01      0.928096E-02
      0.550000E-01      0.847199E-02
      0.600000E-01      0.767965E-02
      0.650000E-01      0.691649E-02
      0.700000E-01      0.619252E-02
      0.750000E-01      0.551515E-02
      0.800000E-01      0.488931E-02
      0.850000E-01      0.431762E-02
      0.900000E-01      0.380070E-02
      0.950000E-01      0.333750E-02
      0.100000          0.292573E-02
      0.105000          0.256216E-02
      0.110000          0.224302E-02
      0.115000          0.196426E-02
      0.120000          0.172177E-02
      0.125000          0.151159E-02
      0.130000          0.133000E-02
      0.135000          0.117359E-02
      0.140000          0.103928E-02
      0.145000          0.924329E-03
      0.150000          0.826282E-03
      0.155000          0.742963E-03
      0.160000          0.672426E-03
      0.165000          0.612924E-03
      0.170000          0.562886E-03
      0.175000          0.520895E-03
      0.180000          0.485673E-03
      0.185000          0.456077E-03
      0.190000          0.431087E-03
      0.195000          0.409807E-03
      0.200000          0.391453E-03
      0.205000          0.375355E-03
      0.210000          0.360943E-03
      0.215000          0.347746E-03
      0.220000          0.335383E-03
      0.225000          0.323555E-03
      0.230000          0.312042E-03
      0.235000          0.300696E-03
      0.240000          0.289437E-03
      0.245000          0.278245E-03
      0.250000          0.267153E-03
      0.255000          0.256242E-03
      0.260000          0.245623E-03
      0.265000          0.235430E-03
      0.270000          0.225802E-03
      0.275000          0.216871E-03
      0.280000          0.208744E-03
      0.285000          0.201495E-03
      0.290000          0.195156E-03
      0.295000          0.189709E-03
      0.300000          0.185092E-03
      0.305000          0.181200E-03
      0.310000          0.177899E-03
      0.315000          0.175033E-03
      0.320000          0.172443E-03
      0.325000          0.169981E-03
      0.330000          0.167519E-03
      0.335000          0.164962E-03
      0.340000          0.162253E-03
      0.345000          0.159374E-03
      0.350000          0.156342E-03
      0.355000          0.153205E-03
      0.360000          0.150033E-03
      0.365000          0.146906E-03
      0.370000          0.143901E-03
      0.375000          0.141090E-03
      0.380000          0.138525E-03
      0.385000          0.136238E-03
      0.390000          0.134238E-03
      0.395000          0.132512E-03
      0.400000          0.131030E-03
      0.405000          0.129749E-03
      0.410000          0.128618E-03
      0.415000          0.127587E-03
      0.420000          0.126609E-03
      0.425000          0.125646E-03
      0.430000          0.124670E-03
      0.435000          0.123663E-03
      0.440000          0.122617E-03
      0.445000          0.121530E-03
      0.450000          0.120407E-03
      0.455000          0.119254E-03
      0.460000          0.118075E-03
      0.465000          0.116872E-03
      0.470000          0.115643E-03
      0.475000          0.114383E-03
      0.480000          0.113083E-03
      0.485000          0.111732E-03
      0.490000          0.110319E-03
      0.495000          0.108834E-03
      0.500000          0.107271E-03
