 I_abs(s)[cm^-1]/c[mg/ml]
       0.00000          0.144971E-01
      0.500000E-02      0.144434E-01
      0.100000E-01      0.142838E-01
      0.150000E-01      0.140224E-01
      0.200000E-01      0.136659E-01
      0.250000E-01      0.132234E-01
      0.300000E-01      0.127055E-01
      0.350000E-01      0.121244E-01
      0.400000E-01      0.114934E-01
      0.450000E-01      0.108257E-01
      0.500000E-01      0.101346E-01
      0.550000E-01      0.943278E-02
      0.600000E-01      0.873183E-02
      0.650000E-01      0.804203E-02
      0.700000E-01      0.737211E-02
      0.750000E-01      0.672914E-02
      0.800000E-01      0.611848E-02
      0.850000E-01      0.554383E-02
      0.900000E-01      0.500742E-02
      0.950000E-01      0.451012E-02
      0.100000          0.405174E-02
      0.105000          0.363120E-02
      0.110000          0.324684E-02
      0.115000          0.289656E-02
      0.120000          0.257813E-02
      0.125000          0.228921E-02
      0.130000          0.202760E-02
      0.135000          0.179121E-02
      0.140000          0.157817E-02
      0.145000          0.138680E-02
      0.150000          0.121559E-02
      0.155000          0.106317E-02
      0.160000          0.928282E-03
      0.165000          0.809708E-03
      0.170000          0.706254E-03
      0.175000          0.616717E-03
      0.180000          0.539872E-03
      0.185000          0.474471E-03
      0.190000          0.419254E-03
      0.195000          0.372974E-03
      0.200000          0.334418E-03
      0.205000          0.302441E-03
      0.210000          0.275991E-03
      0.215000          0.254128E-03
      0.220000          0.236046E-03
      0.225000          0.221071E-03
      0.230000          0.208663E-03
      0.235000          0.198405E-03
      0.240000          0.189987E-03
      0.245000          0.183179E-03
      0.250000          0.177814E-03
      0.255000          0.173759E-03
      0.260000          0.170898E-03
      0.265000          0.169111E-03
      0.270000          0.168265E-03
      0.275000          0.168204E-03
      0.280000          0.168752E-03
      0.285000          0.169713E-03
      0.290000          0.170881E-03
      0.295000          0.172048E-03
      0.300000          0.173014E-03
      0.305000          0.173603E-03
      0.310000          0.173667E-03
      0.315000          0.173092E-03
      0.320000          0.171810E-03
      0.325000          0.169793E-03
      0.330000          0.167053E-03
      0.335000          0.163643E-03
      0.340000          0.159643E-03
      0.345000          0.155161E-03
      0.350000          0.150320E-03
      0.355000          0.145250E-03
      0.360000          0.140086E-03
      0.365000          0.134953E-03
      0.370000          0.129970E-03
      0.375000          0.125238E-03
      0.380000          0.120843E-03
      0.385000          0.116849E-03
      0.390000          0.113303E-03
      0.395000          0.110230E-03
      0.400000          0.107639E-03
      0.405000          0.105519E-03
      0.410000          0.103845E-03
      0.415000          0.102578E-03
      0.420000          0.101669E-03
      0.425000          0.101060E-03
      0.430000          0.100685E-03
      0.435000          0.100480E-03
      0.440000          0.100374E-03
      0.445000          0.100303E-03
      0.450000          0.100206E-03
      0.455000          0.100027E-03
      0.460000          0.997224E-04
      0.465000          0.992553E-04
      0.470000          0.986018E-04
      0.475000          0.977486E-04
      0.480000          0.966943E-04
      0.485000          0.954477E-04
      0.490000          0.940272E-04
      0.495000          0.924590E-04
      0.500000          0.907756E-04
