 I_abs(s)[cm^-1]/c[mg/ml]
       0.00000          0.142605E-01
      0.500000E-02      0.142100E-01
      0.100000E-01      0.140594E-01
      0.150000E-01      0.138118E-01
      0.200000E-01      0.134720E-01
      0.250000E-01      0.130467E-01
      0.300000E-01      0.125440E-01
      0.350000E-01      0.119733E-01
      0.400000E-01      0.113454E-01
      0.450000E-01      0.106714E-01
      0.500000E-01      0.996325E-02
      0.550000E-01      0.923275E-02
      0.600000E-01      0.849169E-02
      0.650000E-01      0.775139E-02
      0.700000E-01      0.702244E-02
      0.750000E-01      0.631451E-02
      0.800000E-01      0.563610E-02
      0.850000E-01      0.499446E-02
      0.900000E-01      0.439545E-02
      0.950000E-01      0.384346E-02
      0.100000          0.334150E-02
      0.105000          0.289111E-02
      0.110000          0.249256E-02
      0.115000          0.214489E-02
      0.120000          0.184606E-02
      0.125000          0.159315E-02
      0.130000          0.138250E-02
      0.135000          0.120995E-02
      0.140000          0.107095E-02
      0.145000          0.960800E-03
      0.150000          0.874812E-03
      0.155000          0.808429E-03
      0.160000          0.757378E-03
      0.165000          0.717762E-03
      0.170000          0.686144E-03
      0.175000          0.659595E-03
      0.180000          0.635719E-03
      0.185000          0.612657E-03
      0.190000          0.589069E-03
      0.195000          0.564093E-03
      0.200000          0.537296E-03
      0.205000          0.508611E-03
      0.210000          0.478268E-03
      0.215000          0.446722E-03
      0.220000          0.414582E-03
      0.225000          0.382541E-03
      0.230000          0.351318E-03
      0.235000          0.321599E-03
      0.240000          0.294001E-03
      0.245000          0.269031E-03
      0.250000          0.247069E-03
      0.255000          0.228352E-03
      0.260000          0.212973E-03
      0.265000          0.200890E-03
      0.270000          0.191932E-03
      0.275000          0.185825E-03
      0.280000          0.182208E-03
      0.285000          0.180664E-03
      0.290000          0.180740E-03
      0.295000          0.181973E-03
      0.300000          0.183913E-03
      0.305000          0.186143E-03
      0.310000          0.188292E-03
      0.315000          0.190050E-03
      0.320000          0.191173E-03
      0.325000          0.191488E-03
      0.330000          0.190892E-03
      0.335000          0.189348E-03
      0.340000          0.186875E-03
      0.345000          0.183547E-03
      0.350000          0.179474E-03
      0.355000          0.174795E-03
      0.360000          0.169668E-03
      0.365000          0.164256E-03
      0.370000          0.158720E-03
      0.375000          0.153207E-03
      0.380000          0.147848E-03
      0.385000          0.142752E-03
      0.390000          0.137998E-03
      0.395000          0.133641E-03
      0.400000          0.129707E-03
      0.405000          0.126200E-03
      0.410000          0.123099E-03
      0.415000          0.120367E-03
      0.420000          0.117954E-03
      0.425000          0.115800E-03
      0.430000          0.113843E-03
      0.435000          0.112019E-03
      0.440000          0.110271E-03
      0.445000          0.108548E-03
      0.450000          0.106810E-03
      0.455000          0.105028E-03
      0.460000          0.103184E-03
      0.465000          0.101275E-03
      0.470000          0.993077E-04
      0.475000          0.972976E-04
      0.480000          0.952701E-04
      0.485000          0.932555E-04
      0.490000          0.912881E-04
      0.495000          0.894029E-04
      0.500000          0.876341E-04
