 I_abs(s)[cm^-1]/c[mg/ml]
       0.00000          0.146240E-01
      0.500000E-02      0.145625E-01
      0.100000E-01      0.143795E-01
      0.150000E-01      0.140798E-01
      0.200000E-01      0.136713E-01
      0.250000E-01      0.131643E-01
      0.300000E-01      0.125714E-01
      0.350000E-01      0.119070E-01
      0.400000E-01      0.111867E-01
      0.450000E-01      0.104265E-01
      0.500000E-01      0.964250E-02
      0.550000E-01      0.885021E-02
      0.600000E-01      0.806407E-02
      0.650000E-01      0.729705E-02
      0.700000E-01      0.656034E-02
      0.750000E-01      0.586307E-02
      0.800000E-01      0.521226E-02
      0.850000E-01      0.461275E-02
      0.900000E-01      0.406734E-02
      0.950000E-01      0.357691E-02
      0.100000          0.314065E-02
      0.105000          0.275639E-02
      0.110000          0.242082E-02
      0.115000          0.212986E-02
      0.120000          0.187895E-02
      0.125000          0.166333E-02
      0.130000          0.147824E-02
      0.135000          0.131919E-02
      0.140000          0.118204E-02
      0.145000          0.106314E-02
      0.150000          0.959360E-03
      0.155000          0.868118E-03
      0.160000          0.787335E-03
      0.165000          0.715396E-03
      0.170000          0.651079E-03
      0.175000          0.593479E-03
      0.180000          0.541926E-03
      0.185000          0.495913E-03
      0.190000          0.455032E-03
      0.195000          0.418923E-03
      0.200000          0.387237E-03
      0.205000          0.359611E-03
      0.210000          0.335663E-03
      0.215000          0.314991E-03
      0.220000          0.297181E-03
      0.225000          0.281823E-03
      0.230000          0.268524E-03
      0.235000          0.256926E-03
      0.240000          0.246715E-03
      0.245000          0.237632E-03
      0.250000          0.229474E-03
      0.255000          0.222094E-03
      0.260000          0.215395E-03
      0.265000          0.209320E-03
      0.270000          0.203842E-03
      0.275000          0.198951E-03
      0.280000          0.194641E-03
      0.285000          0.190904E-03
      0.290000          0.187716E-03
      0.295000          0.185039E-03
      0.300000          0.182813E-03
      0.305000          0.180960E-03
      0.310000          0.179388E-03
      0.315000          0.177995E-03
      0.320000          0.176675E-03
      0.325000          0.175327E-03
      0.330000          0.173859E-03
      0.335000          0.172196E-03
      0.340000          0.170284E-03
      0.345000          0.168090E-03
      0.350000          0.165608E-03
      0.355000          0.162853E-03
      0.360000          0.159860E-03
      0.365000          0.156681E-03
      0.370000          0.153381E-03
      0.375000          0.150028E-03
      0.380000          0.146696E-03
      0.385000          0.143451E-03
      0.390000          0.140353E-03
      0.395000          0.137452E-03
      0.400000          0.134784E-03
      0.405000          0.132367E-03
      0.410000          0.130210E-03
      0.415000          0.128303E-03
      0.420000          0.126627E-03
      0.425000          0.125152E-03
      0.430000          0.123839E-03
      0.435000          0.122648E-03
      0.440000          0.121536E-03
      0.445000          0.120460E-03
      0.450000          0.119383E-03
      0.455000          0.118271E-03
      0.460000          0.117101E-03
      0.465000          0.115854E-03
      0.470000          0.114522E-03
      0.475000          0.113104E-03
      0.480000          0.111606E-03
      0.485000          0.110043E-03
      0.490000          0.108433E-03
      0.495000          0.106797E-03
      0.500000          0.105161E-03
