 I_abs(s)[cm^-1]/c[mg/ml]
       0.00000          0.143234E-01
      0.500000E-02      0.142577E-01
      0.100000E-01      0.140625E-01
      0.150000E-01      0.137431E-01
      0.200000E-01      0.133084E-01
      0.250000E-01      0.127701E-01
      0.300000E-01      0.121424E-01
      0.350000E-01      0.114415E-01
      0.400000E-01      0.106847E-01
      0.450000E-01      0.989016E-02
      0.500000E-01      0.907567E-02
      0.550000E-01      0.825845E-02
      0.600000E-01      0.745441E-02
      0.650000E-01      0.667767E-02
      0.700000E-01      0.594023E-02
      0.750000E-01      0.525167E-02
      0.800000E-01      0.461906E-02
      0.850000E-01      0.404694E-02
      0.900000E-01      0.353743E-02
      0.950000E-01      0.309042E-02
      0.100000          0.270386E-02
      0.105000          0.237411E-02
      0.110000          0.209629E-02
      0.115000          0.186465E-02
      0.120000          0.167300E-02
      0.125000          0.151500E-02
      0.130000          0.138446E-02
      0.135000          0.127564E-02
      0.140000          0.118335E-02
      0.145000          0.110319E-02
      0.150000          0.103149E-02
      0.155000          0.965419E-03
      0.160000          0.902907E-03
      0.165000          0.842578E-03
      0.170000          0.783656E-03
      0.175000          0.725852E-03
      0.180000          0.669246E-03
      0.185000          0.614170E-03
      0.190000          0.561101E-03
      0.195000          0.510576E-03
      0.200000          0.463109E-03
      0.205000          0.419147E-03
      0.210000          0.379028E-03
      0.215000          0.342967E-03
      0.220000          0.311048E-03
      0.225000          0.283234E-03
      0.230000          0.259386E-03
      0.235000          0.239275E-03
      0.240000          0.222612E-03
      0.245000          0.209065E-03
      0.250000          0.198284E-03
      0.255000          0.189911E-03
      0.260000          0.183596E-03
      0.265000          0.179011E-03
      0.270000          0.175847E-03
      0.275000          0.173824E-03
      0.280000          0.172692E-03
      0.285000          0.172227E-03
      0.290000          0.172236E-03
      0.295000          0.172549E-03
      0.300000          0.173026E-03
      0.305000          0.173550E-03
      0.310000          0.174027E-03
      0.315000          0.174390E-03
      0.320000          0.174589E-03
      0.325000          0.174598E-03
      0.330000          0.174408E-03
      0.335000          0.174022E-03
      0.340000          0.173458E-03
      0.345000          0.172742E-03
      0.350000          0.171902E-03
      0.355000          0.170967E-03
      0.360000          0.169963E-03
      0.365000          0.168910E-03
      0.370000          0.167819E-03
      0.375000          0.166693E-03
      0.380000          0.165527E-03
      0.385000          0.164306E-03
      0.390000          0.163013E-03
      0.395000          0.161623E-03
      0.400000          0.160115E-03
      0.405000          0.158467E-03
      0.410000          0.156663E-03
      0.415000          0.154696E-03
      0.420000          0.152565E-03
      0.425000          0.150279E-03
      0.430000          0.147857E-03
      0.435000          0.145322E-03
      0.440000          0.142707E-03
      0.445000          0.140045E-03
      0.450000          0.137373E-03
      0.455000          0.134722E-03
      0.460000          0.132122E-03
      0.465000          0.129596E-03
      0.470000          0.127158E-03
      0.475000          0.124815E-03
      0.480000          0.122563E-03
      0.485000          0.120392E-03
      0.490000          0.118286E-03
      0.495000          0.116221E-03
      0.500000          0.114175E-03
