 I_abs(s)[cm^-1]/c[mg/ml]
       0.00000          0.128447E-01
      0.500000E-02      0.126961E-01
      0.100000E-01      0.122629E-01
      0.150000E-01      0.115809E-01
      0.200000E-01      0.107041E-01
      0.250000E-01      0.969809E-02
      0.300000E-01      0.863173E-02
      0.350000E-01      0.756926E-02
      0.400000E-01      0.656414E-02
      0.450000E-01      0.565499E-02
      0.500000E-01      0.486421E-02
      0.550000E-01      0.419903E-02
      0.600000E-01      0.365434E-02
      0.650000E-01      0.321658E-02
      0.700000E-01      0.286781E-02
      0.750000E-01      0.258919E-02
      0.800000E-01      0.236353E-02
      0.850000E-01      0.217671E-02
      0.900000E-01      0.201808E-02
      0.950000E-01      0.188019E-02
      0.100000          0.175805E-02
      0.105000          0.164836E-02
      0.110000          0.154889E-02
      0.115000          0.145799E-02
      0.120000          0.137438E-02
      0.125000          0.129700E-02
      0.130000          0.122497E-02
      0.135000          0.115756E-02
      0.140000          0.109412E-02
      0.145000          0.103401E-02
      0.150000          0.976647E-03
      0.155000          0.921482E-03
      0.160000          0.868125E-03
      0.165000          0.816427E-03
      0.170000          0.766548E-03
      0.175000          0.718946E-03
      0.180000          0.674280E-03
      0.185000          0.633240E-03
      0.190000          0.596347E-03
      0.195000          0.563773E-03
      0.200000          0.535257E-03
      0.205000          0.510117E-03
      0.210000          0.487384E-03
      0.215000          0.466011E-03
      0.220000          0.445100E-03
      0.225000          0.424090E-03
      0.230000          0.402856E-03
      0.235000          0.381694E-03
      0.240000          0.361211E-03
      0.245000          0.342148E-03
      0.250000          0.325187E-03
      0.255000          0.310791E-03
      0.260000          0.299116E-03
      0.265000          0.290002E-03
      0.270000          0.283030E-03
      0.275000          0.277629E-03
      0.280000          0.273191E-03
      0.285000          0.269166E-03
      0.290000          0.265127E-03
      0.295000          0.260783E-03
      0.300000          0.255974E-03
      0.305000          0.250632E-03
      0.310000          0.244750E-03
      0.315000          0.238349E-03
      0.320000          0.231469E-03
      0.325000          0.224161E-03
      0.330000          0.216496E-03
      0.335000          0.208566E-03
      0.340000          0.200488E-03
      0.345000          0.192401E-03
      0.350000          0.184460E-03
      0.355000          0.176827E-03
      0.360000          0.169667E-03
      0.365000          0.163135E-03
      0.370000          0.157375E-03
      0.375000          0.152507E-03
      0.380000          0.148612E-03
      0.385000          0.145719E-03
      0.390000          0.143791E-03
      0.395000          0.142708E-03
      0.400000          0.142271E-03
      0.405000          0.142210E-03
      0.410000          0.142212E-03
      0.415000          0.141955E-03
      0.420000          0.141149E-03
      0.425000          0.139573E-03
      0.430000          0.137104E-03
      0.435000          0.133729E-03
      0.440000          0.129542E-03
      0.445000          0.124725E-03
      0.450000          0.119516E-03
      0.455000          0.114180E-03
      0.460000          0.108969E-03
      0.465000          0.104103E-03
      0.470000          0.997455E-04
      0.475000          0.960002E-04
      0.480000          0.929078E-04
      0.485000          0.904533E-04
      0.490000          0.885760E-04
      0.495000          0.871812E-04
      0.500000          0.861526E-04
