 I_abs(s)[cm^-1]/c[mg/ml]
       0.00000          0.142291E-01
      0.500000E-02      0.141670E-01
      0.100000E-01      0.139821E-01
      0.150000E-01      0.136791E-01
      0.200000E-01      0.132655E-01
      0.250000E-01      0.127512E-01
      0.300000E-01      0.121484E-01
      0.350000E-01      0.114713E-01
      0.400000E-01      0.107351E-01
      0.450000E-01      0.995582E-02
      0.500000E-01      0.914962E-02
      0.550000E-01      0.833242E-02
      0.600000E-01      0.751927E-02
      0.650000E-01      0.672400E-02
      0.700000E-01      0.595886E-02
      0.750000E-01      0.523423E-02
      0.800000E-01      0.455845E-02
      0.850000E-01      0.393773E-02
      0.900000E-01      0.337617E-02
      0.950000E-01      0.287583E-02
      0.100000          0.243689E-02
      0.105000          0.205786E-02
      0.110000          0.173585E-02
      0.115000          0.146684E-02
      0.120000          0.124598E-02
      0.125000          0.106790E-02
      0.130000          0.926935E-03
      0.135000          0.817438E-03
      0.140000          0.733944E-03
      0.145000          0.671357E-03
      0.150000          0.625072E-03
      0.155000          0.591065E-03
      0.160000          0.565924E-03
      0.165000          0.546863E-03
      0.170000          0.531692E-03
      0.175000          0.518768E-03
      0.180000          0.506926E-03
      0.185000          0.495409E-03
      0.190000          0.483779E-03
      0.195000          0.471842E-03
      0.200000          0.459575E-03
      0.205000          0.447063E-03
      0.210000          0.434446E-03
      0.215000          0.421877E-03
      0.220000          0.409498E-03
      0.225000          0.397420E-03
      0.230000          0.385714E-03
      0.235000          0.374414E-03
      0.240000          0.363518E-03
      0.245000          0.352999E-03
      0.250000          0.342814E-03
      0.255000          0.332911E-03
      0.260000          0.323240E-03
      0.265000          0.313757E-03
      0.270000          0.304429E-03
      0.275000          0.295239E-03
      0.280000          0.286177E-03
      0.285000          0.277249E-03
      0.290000          0.268464E-03
      0.295000          0.259839E-03
      0.300000          0.251389E-03
      0.305000          0.243130E-03
      0.310000          0.235072E-03
      0.315000          0.227221E-03
      0.320000          0.219577E-03
      0.325000          0.212139E-03
      0.330000          0.204899E-03
      0.335000          0.197851E-03
      0.340000          0.190988E-03
      0.345000          0.184309E-03
      0.350000          0.177813E-03
      0.355000          0.171508E-03
      0.360000          0.165406E-03
      0.365000          0.159526E-03
      0.370000          0.153892E-03
      0.375000          0.148530E-03
      0.380000          0.143470E-03
      0.385000          0.138739E-03
      0.390000          0.134366E-03
      0.395000          0.130373E-03
      0.400000          0.126776E-03
      0.405000          0.123588E-03
      0.410000          0.120809E-03
      0.415000          0.118433E-03
      0.420000          0.116446E-03
      0.425000          0.114823E-03
      0.430000          0.113535E-03
      0.435000          0.112542E-03
      0.440000          0.111801E-03
      0.445000          0.111266E-03
      0.450000          0.110886E-03
      0.455000          0.110611E-03
      0.460000          0.110392E-03
      0.465000          0.110180E-03
      0.470000          0.109934E-03
      0.475000          0.109613E-03
      0.480000          0.109186E-03
      0.485000          0.108627E-03
      0.490000          0.107919E-03
      0.495000          0.107049E-03
      0.500000          0.106017E-03
