 I_abs(s)[cm^-1]/c[mg/ml]
       0.00000          0.144022E-01
      0.500000E-02      0.143539E-01
      0.100000E-01      0.142098E-01
      0.150000E-01      0.139728E-01
      0.200000E-01      0.136471E-01
      0.250000E-01      0.132389E-01
      0.300000E-01      0.127556E-01
      0.350000E-01      0.122059E-01
      0.400000E-01      0.115995E-01
      0.450000E-01      0.109467E-01
      0.500000E-01      0.102583E-01
      0.550000E-01      0.954536E-02
      0.600000E-01      0.881881E-02
      0.650000E-01      0.808919E-02
      0.700000E-01      0.736645E-02
      0.750000E-01      0.665977E-02
      0.800000E-01      0.597734E-02
      0.850000E-01      0.532625E-02
      0.900000E-01      0.471241E-02
      0.950000E-01      0.414046E-02
      0.100000          0.361378E-02
      0.105000          0.313451E-02
      0.110000          0.270361E-02
      0.115000          0.232095E-02
      0.120000          0.198542E-02
      0.125000          0.169506E-02
      0.130000          0.144723E-02
      0.135000          0.123871E-02
      0.140000          0.106590E-02
      0.145000          0.924949E-03
      0.150000          0.811893E-03
      0.155000          0.722783E-03
      0.160000          0.653789E-03
      0.165000          0.601296E-03
      0.170000          0.561973E-03
      0.175000          0.532825E-03
      0.180000          0.511226E-03
      0.185000          0.494932E-03
      0.190000          0.482087E-03
      0.195000          0.471203E-03
      0.200000          0.461138E-03
      0.205000          0.451063E-03
      0.210000          0.440422E-03
      0.215000          0.428891E-03
      0.220000          0.416338E-03
      0.225000          0.402776E-03
      0.230000          0.388327E-03
      0.235000          0.373186E-03
      0.240000          0.357591E-03
      0.245000          0.341795E-03
      0.250000          0.326050E-03
      0.255000          0.310588E-03
      0.260000          0.295609E-03
      0.265000          0.281281E-03
      0.270000          0.267732E-03
      0.275000          0.255050E-03
      0.280000          0.243287E-03
      0.285000          0.232465E-03
      0.290000          0.222574E-03
      0.295000          0.213583E-03
      0.300000          0.205444E-03
      0.305000          0.198093E-03
      0.310000          0.191458E-03
      0.315000          0.185464E-03
      0.320000          0.180031E-03
      0.325000          0.175082E-03
      0.330000          0.170539E-03
      0.335000          0.166331E-03
      0.340000          0.162393E-03
      0.345000          0.158662E-03
      0.350000          0.155088E-03
      0.355000          0.151622E-03
      0.360000          0.148230E-03
      0.365000          0.144880E-03
      0.370000          0.141553E-03
      0.375000          0.138237E-03
      0.380000          0.134928E-03
      0.385000          0.131630E-03
      0.390000          0.128356E-03
      0.395000          0.125124E-03
      0.400000          0.121955E-03
      0.405000          0.118878E-03
      0.410000          0.115921E-03
      0.415000          0.113114E-03
      0.420000          0.110485E-03
      0.425000          0.108061E-03
      0.430000          0.105862E-03
      0.435000          0.103906E-03
      0.440000          0.102201E-03
      0.445000          0.100751E-03
      0.450000          0.995492E-04
      0.455000          0.985846E-04
      0.460000          0.978372E-04
      0.465000          0.972816E-04
      0.470000          0.968871E-04
      0.475000          0.966193E-04
      0.480000          0.964411E-04
      0.485000          0.963152E-04
      0.490000          0.962046E-04
      0.495000          0.960747E-04
      0.500000          0.958944E-04
