 I_abs(s)[cm^-1]/c[mg/ml]
       0.00000          0.144496E-01
      0.500000E-02      0.144050E-01
      0.100000E-01      0.142720E-01
      0.150000E-01      0.140528E-01
      0.200000E-01      0.137514E-01
      0.250000E-01      0.133728E-01
      0.300000E-01      0.129234E-01
      0.350000E-01      0.124108E-01
      0.400000E-01      0.118432E-01
      0.450000E-01      0.112296E-01
      0.500000E-01      0.105796E-01
      0.550000E-01      0.990269E-02
      0.600000E-01      0.920862E-02
      0.650000E-01      0.850680E-02
      0.700000E-01      0.780625E-02
      0.750000E-01      0.711540E-02
      0.800000E-01      0.644194E-02
      0.850000E-01      0.579270E-02
      0.900000E-01      0.517354E-02
      0.950000E-01      0.458934E-02
      0.100000          0.404390E-02
      0.105000          0.354002E-02
      0.110000          0.307948E-02
      0.115000          0.266308E-02
      0.120000          0.229077E-02
      0.125000          0.196169E-02
      0.130000          0.167429E-02
      0.135000          0.142645E-02
      0.140000          0.121555E-02
      0.145000          0.103866E-02
      0.150000          0.892563E-03
      0.155000          0.773927E-03
      0.160000          0.679366E-03
      0.165000          0.605532E-03
      0.170000          0.549193E-03
      0.175000          0.507287E-03
      0.180000          0.476977E-03
      0.185000          0.455681E-03
      0.190000          0.441103E-03
      0.195000          0.431241E-03
      0.200000          0.424392E-03
      0.205000          0.419148E-03
      0.210000          0.414384E-03
      0.215000          0.409240E-03
      0.220000          0.403095E-03
      0.225000          0.395545E-03
      0.230000          0.386374E-03
      0.235000          0.375523E-03
      0.240000          0.363062E-03
      0.245000          0.349161E-03
      0.250000          0.334065E-03
      0.255000          0.318066E-03
      0.260000          0.301484E-03
      0.265000          0.284643E-03
      0.270000          0.267859E-03
      0.275000          0.251426E-03
      0.280000          0.235601E-03
      0.285000          0.220604E-03
      0.290000          0.206608E-03
      0.295000          0.193737E-03
      0.300000          0.182072E-03
      0.305000          0.171645E-03
      0.310000          0.162451E-03
      0.315000          0.154448E-03
      0.320000          0.147563E-03
      0.325000          0.141700E-03
      0.330000          0.136746E-03
      0.335000          0.132579E-03
      0.340000          0.129069E-03
      0.345000          0.126089E-03
      0.350000          0.123518E-03
      0.355000          0.121242E-03
      0.360000          0.119160E-03
      0.365000          0.117186E-03
      0.370000          0.115249E-03
      0.375000          0.113293E-03
      0.380000          0.111279E-03
      0.385000          0.109182E-03
      0.390000          0.106990E-03
      0.395000          0.104705E-03
      0.400000          0.102336E-03
      0.405000          0.999020E-04
      0.410000          0.974279E-04
      0.415000          0.949426E-04
      0.420000          0.924771E-04
      0.425000          0.900639E-04
      0.430000          0.877345E-04
      0.435000          0.855189E-04
      0.440000          0.834447E-04
      0.445000          0.815361E-04
      0.450000          0.798138E-04
      0.455000          0.782942E-04
      0.460000          0.769898E-04
      0.465000          0.759087E-04
      0.470000          0.750551E-04
      0.475000          0.744290E-04
      0.480000          0.740269E-04
      0.485000          0.738417E-04
      0.490000          0.738632E-04
      0.495000          0.740781E-04
      0.500000          0.744708E-04
