 I_abs(s)[cm^-1]/c[mg/ml]
       0.00000          0.147356E-01
      0.500000E-02      0.146841E-01
      0.100000E-01      0.145309E-01
      0.150000E-01      0.142791E-01
      0.200000E-01      0.139342E-01
      0.250000E-01      0.135033E-01
      0.300000E-01      0.129955E-01
      0.350000E-01      0.124210E-01
      0.400000E-01      0.117908E-01
      0.450000E-01      0.111170E-01
      0.500000E-01      0.104116E-01
      0.550000E-01      0.968671E-02
      0.600000E-01      0.895394E-02
      0.650000E-01      0.822418E-02
      0.700000E-01      0.750738E-02
      0.750000E-01      0.681226E-02
      0.800000E-01      0.614625E-02
      0.850000E-01      0.551535E-02
      0.900000E-01      0.492413E-02
      0.950000E-01      0.437573E-02
      0.100000          0.387197E-02
      0.105000          0.341343E-02
      0.110000          0.299962E-02
      0.115000          0.262915E-02
      0.120000          0.229989E-02
      0.125000          0.200914E-02
      0.130000          0.175388E-02
      0.135000          0.153083E-02
      0.140000          0.133667E-02
      0.145000          0.116813E-02
      0.150000          0.102210E-02
      0.155000          0.895689E-03
      0.160000          0.786286E-03
      0.165000          0.691574E-03
      0.170000          0.609540E-03
      0.175000          0.538466E-03
      0.180000          0.476904E-03
      0.185000          0.423646E-03
      0.190000          0.377686E-03
      0.195000          0.338185E-03
      0.200000          0.304437E-03
      0.205000          0.275831E-03
      0.210000          0.251831E-03
      0.215000          0.231948E-03
      0.220000          0.215727E-03
      0.225000          0.202736E-03
      0.230000          0.192564E-03
      0.235000          0.184812E-03
      0.240000          0.179104E-03
      0.245000          0.175086E-03
      0.250000          0.172427E-03
      0.255000          0.170832E-03
      0.260000          0.170038E-03
      0.265000          0.169820E-03
      0.270000          0.169990E-03
      0.275000          0.170399E-03
      0.280000          0.170930E-03
      0.285000          0.171499E-03
      0.290000          0.172048E-03
      0.295000          0.172539E-03
      0.300000          0.172951E-03
      0.305000          0.173270E-03
      0.310000          0.173490E-03
      0.315000          0.173608E-03
      0.320000          0.173615E-03
      0.325000          0.173503E-03
      0.330000          0.173258E-03
      0.335000          0.172860E-03
      0.340000          0.172290E-03
      0.345000          0.171522E-03
      0.350000          0.170535E-03
      0.355000          0.169305E-03
      0.360000          0.167817E-03
      0.365000          0.166059E-03
      0.370000          0.164026E-03
      0.375000          0.161725E-03
      0.380000          0.159167E-03
      0.385000          0.156376E-03
      0.390000          0.153382E-03
      0.395000          0.150223E-03
      0.400000          0.146943E-03
      0.405000          0.143587E-03
      0.410000          0.140207E-03
      0.415000          0.136849E-03
      0.420000          0.133560E-03
      0.425000          0.130382E-03
      0.430000          0.127350E-03
      0.435000          0.124494E-03
      0.440000          0.121835E-03
      0.445000          0.119383E-03
      0.450000          0.117141E-03
      0.455000          0.115106E-03
      0.460000          0.113263E-03
      0.465000          0.111592E-03
      0.470000          0.110069E-03
      0.475000          0.108665E-03
      0.480000          0.107348E-03
      0.485000          0.106089E-03
      0.490000          0.104856E-03
      0.495000          0.103623E-03
      0.500000          0.102367E-03
