 I_abs(s)[cm^-1]/c[mg/ml]
       0.00000          0.142448E-01
      0.500000E-02      0.141913E-01
      0.100000E-01      0.140320E-01
      0.150000E-01      0.137703E-01
      0.200000E-01      0.134118E-01
      0.250000E-01      0.129640E-01
      0.300000E-01      0.124363E-01
      0.350000E-01      0.118393E-01
      0.400000E-01      0.111849E-01
      0.450000E-01      0.104856E-01
      0.500000E-01      0.975452E-02
      0.550000E-01      0.900452E-02
      0.600000E-01      0.824822E-02
      0.650000E-01      0.749756E-02
      0.700000E-01      0.676349E-02
      0.750000E-01      0.605576E-02
      0.800000E-01      0.538273E-02
      0.850000E-01      0.475123E-02
      0.900000E-01      0.416649E-02
      0.950000E-01      0.363217E-02
      0.100000          0.315032E-02
      0.105000          0.272155E-02
      0.110000          0.234516E-02
      0.115000          0.201923E-02
      0.120000          0.174092E-02
      0.125000          0.150658E-02
      0.130000          0.131202E-02
      0.135000          0.115270E-02
      0.140000          0.102390E-02
      0.145000          0.920937E-03
      0.150000          0.839281E-03
      0.155000          0.774703E-03
      0.160000          0.723364E-03
      0.165000          0.681885E-03
      0.170000          0.647387E-03
      0.175000          0.617500E-03
      0.180000          0.590364E-03
      0.185000          0.564588E-03
      0.190000          0.539216E-03
      0.195000          0.513666E-03
      0.200000          0.487670E-03
      0.205000          0.461212E-03
      0.210000          0.434459E-03
      0.215000          0.407703E-03
      0.220000          0.381309E-03
      0.225000          0.355664E-03
      0.230000          0.331144E-03
      0.235000          0.308078E-03
      0.240000          0.286734E-03
      0.245000          0.267304E-03
      0.250000          0.249901E-03
      0.255000          0.234558E-03
      0.260000          0.221239E-03
      0.265000          0.209843E-03
      0.270000          0.200224E-03
      0.275000          0.192197E-03
      0.280000          0.185558E-03
      0.285000          0.180091E-03
      0.290000          0.175584E-03
      0.295000          0.171836E-03
      0.300000          0.168665E-03
      0.305000          0.165912E-03
      0.310000          0.163447E-03
      0.315000          0.161165E-03
      0.320000          0.158990E-03
      0.325000          0.156871E-03
      0.330000          0.154779E-03
      0.335000          0.152703E-03
      0.340000          0.150644E-03
      0.345000          0.148618E-03
      0.350000          0.146641E-03
      0.355000          0.144737E-03
      0.360000          0.142924E-03
      0.365000          0.141220E-03
      0.370000          0.139636E-03
      0.375000          0.138177E-03
      0.380000          0.136842E-03
      0.385000          0.135621E-03
      0.390000          0.134499E-03
      0.395000          0.133455E-03
      0.400000          0.132462E-03
      0.405000          0.131492E-03
      0.410000          0.130515E-03
      0.415000          0.129500E-03
      0.420000          0.128419E-03
      0.425000          0.127248E-03
      0.430000          0.125965E-03
      0.435000          0.124554E-03
      0.440000          0.123007E-03
      0.445000          0.121320E-03
      0.450000          0.119497E-03
      0.455000          0.117549E-03
      0.460000          0.115492E-03
      0.465000          0.113348E-03
      0.470000          0.111143E-03
      0.475000          0.108909E-03
      0.480000          0.106677E-03
      0.485000          0.104482E-03
      0.490000          0.102357E-03
      0.495000          0.100334E-03
      0.500000          0.984444E-04
