 I_abs(s)[cm^-1]/c[mg/ml]
       0.00000          0.138551E-01
      0.500000E-02      0.137867E-01
      0.100000E-01      0.135837E-01
      0.150000E-01      0.132525E-01
      0.200000E-01      0.128030E-01
      0.250000E-01      0.122490E-01
      0.300000E-01      0.116068E-01
      0.350000E-01      0.108946E-01
      0.400000E-01      0.101320E-01
      0.450000E-01      0.933903E-02
      0.500000E-01      0.853513E-02
      0.550000E-01      0.773860E-02
      0.600000E-01      0.696585E-02
      0.650000E-01      0.623091E-02
      0.700000E-01      0.554502E-02
      0.750000E-01      0.491646E-02
      0.800000E-01      0.435045E-02
      0.850000E-01      0.384926E-02
      0.900000E-01      0.341250E-02
      0.950000E-01      0.303741E-02
      0.100000          0.271936E-02
      0.105000          0.245230E-02
      0.110000          0.222928E-02
      0.115000          0.204295E-02
      0.120000          0.188602E-02
      0.125000          0.175164E-02
      0.130000          0.163368E-02
      0.135000          0.152701E-02
      0.140000          0.142758E-02
      0.145000          0.133245E-02
      0.150000          0.123978E-02
      0.155000          0.114868E-02
      0.160000          0.105908E-02
      0.165000          0.971522E-03
      0.170000          0.886954E-03
      0.175000          0.806535E-03
      0.180000          0.731446E-03
      0.185000          0.662738E-03
      0.190000          0.601214E-03
      0.195000          0.547353E-03
      0.200000          0.501273E-03
      0.205000          0.462741E-03
      0.210000          0.431197E-03
      0.215000          0.405828E-03
      0.220000          0.385634E-03
      0.225000          0.369519E-03
      0.230000          0.356372E-03
      0.235000          0.345147E-03
      0.240000          0.334924E-03
      0.245000          0.324956E-03
      0.250000          0.314700E-03
      0.255000          0.303821E-03
      0.260000          0.292188E-03
      0.265000          0.279851E-03
      0.270000          0.267003E-03
      0.275000          0.253947E-03
      0.280000          0.241041E-03
      0.285000          0.228666E-03
      0.290000          0.217182E-03
      0.295000          0.206894E-03
      0.300000          0.198033E-03
      0.305000          0.190738E-03
      0.310000          0.185052E-03
      0.315000          0.180923E-03
      0.320000          0.178216E-03
      0.325000          0.176723E-03
      0.330000          0.176190E-03
      0.335000          0.176328E-03
      0.340000          0.176840E-03
      0.345000          0.177436E-03
      0.350000          0.177851E-03
      0.355000          0.177857E-03
      0.360000          0.177273E-03
      0.365000          0.175970E-03
      0.370000          0.173871E-03
      0.375000          0.170953E-03
      0.380000          0.167239E-03
      0.385000          0.162793E-03
      0.390000          0.157712E-03
      0.395000          0.152117E-03
      0.400000          0.146146E-03
      0.405000          0.139944E-03
      0.410000          0.133654E-03
      0.415000          0.127413E-03
      0.420000          0.121345E-03
      0.425000          0.115557E-03
      0.430000          0.110137E-03
      0.435000          0.105152E-03
      0.440000          0.100645E-03
      0.445000          0.966417E-04
      0.450000          0.931467E-04
      0.455000          0.901485E-04
      0.460000          0.876220E-04
      0.465000          0.855314E-04
      0.470000          0.838334E-04
      0.475000          0.824806E-04
      0.480000          0.814244E-04
      0.485000          0.806169E-04
      0.490000          0.800134E-04
      0.495000          0.795734E-04
      0.500000          0.792618E-04
