 I_abs(s)[cm^-1]/c[mg/ml]
       0.00000          0.143785E-01
      0.500000E-02      0.143099E-01
      0.100000E-01      0.141059E-01
      0.150000E-01      0.137723E-01
      0.200000E-01      0.133181E-01
      0.250000E-01      0.127555E-01
      0.300000E-01      0.120995E-01
      0.350000E-01      0.113669E-01
      0.400000E-01      0.105756E-01
      0.450000E-01      0.974457E-02
      0.500000E-01      0.889232E-02
      0.550000E-01      0.803678E-02
      0.600000E-01      0.719453E-02
      0.650000E-01      0.638032E-02
      0.700000E-01      0.560676E-02
      0.750000E-01      0.488404E-02
      0.800000E-01      0.421978E-02
      0.850000E-01      0.361907E-02
      0.900000E-01      0.308459E-02
      0.950000E-01      0.261674E-02
      0.100000          0.221402E-02
      0.105000          0.187324E-02
      0.110000          0.158995E-02
      0.115000          0.135879E-02
      0.120000          0.117380E-02
      0.125000          0.102875E-02
      0.130000          0.917444E-03
      0.135000          0.833918E-03
      0.140000          0.772623E-03
      0.145000          0.728549E-03
      0.150000          0.697303E-03
      0.155000          0.675139E-03
      0.160000          0.658955E-03
      0.165000          0.646260E-03
      0.170000          0.635125E-03
      0.175000          0.624120E-03
      0.180000          0.612243E-03
      0.185000          0.598852E-03
      0.190000          0.583600E-03
      0.195000          0.566376E-03
      0.200000          0.547250E-03
      0.205000          0.526429E-03
      0.210000          0.504219E-03
      0.215000          0.480994E-03
      0.220000          0.457164E-03
      0.225000          0.433157E-03
      0.230000          0.409395E-03
      0.235000          0.386279E-03
      0.240000          0.364169E-03
      0.245000          0.343377E-03
      0.250000          0.324151E-03
      0.255000          0.306673E-03
      0.260000          0.291052E-03
      0.265000          0.277322E-03
      0.270000          0.265449E-03
      0.275000          0.255336E-03
      0.280000          0.246830E-03
      0.285000          0.239737E-03
      0.290000          0.233835E-03
      0.295000          0.228884E-03
      0.300000          0.224643E-03
      0.305000          0.220880E-03
      0.310000          0.217387E-03
      0.315000          0.213980E-03
      0.320000          0.210513E-03
      0.325000          0.206876E-03
      0.330000          0.202997E-03
      0.335000          0.198838E-03
      0.340000          0.194396E-03
      0.345000          0.189692E-03
      0.350000          0.184766E-03
      0.355000          0.179677E-03
      0.360000          0.174488E-03
      0.365000          0.169267E-03
      0.370000          0.164080E-03
      0.375000          0.158985E-03
      0.380000          0.154037E-03
      0.385000          0.149277E-03
      0.390000          0.144738E-03
      0.395000          0.140444E-03
      0.400000          0.136409E-03
      0.405000          0.132640E-03
      0.410000          0.129136E-03
      0.415000          0.125895E-03
      0.420000          0.122906E-03
      0.425000          0.120160E-03
      0.430000          0.117643E-03
      0.435000          0.115343E-03
      0.440000          0.113245E-03
      0.445000          0.111336E-03
      0.450000          0.109600E-03
      0.455000          0.108024E-03
      0.460000          0.106593E-03
      0.465000          0.105292E-03
      0.470000          0.104106E-03
      0.475000          0.103021E-03
      0.480000          0.102022E-03
      0.485000          0.101094E-03
      0.490000          0.100224E-03
      0.495000          0.993981E-04
      0.500000          0.986036E-04
