 I_abs(s)[cm^-1]/c[mg/ml]
       0.00000          0.145684E-01
      0.500000E-02      0.144941E-01
      0.100000E-01      0.142737E-01
      0.150000E-01      0.139146E-01
      0.200000E-01      0.134286E-01
      0.250000E-01      0.128314E-01
      0.300000E-01      0.121415E-01
      0.350000E-01      0.113796E-01
      0.400000E-01      0.105672E-01
      0.450000E-01      0.972594E-02
      0.500000E-01      0.887623E-02
      0.550000E-01      0.803678E-02
      0.600000E-01      0.722376E-02
      0.650000E-01      0.645043E-02
      0.700000E-01      0.572685E-02
      0.750000E-01      0.505990E-02
      0.800000E-01      0.445344E-02
      0.850000E-01      0.390858E-02
      0.900000E-01      0.342418E-02
      0.950000E-01      0.299727E-02
      0.100000          0.262365E-02
      0.105000          0.229832E-02
      0.110000          0.201597E-02
      0.115000          0.177134E-02
      0.120000          0.155950E-02
      0.125000          0.137604E-02
      0.130000          0.121715E-02
      0.135000          0.107965E-02
      0.140000          0.960931E-03
      0.145000          0.858859E-03
      0.150000          0.771682E-03
      0.155000          0.697902E-03
      0.160000          0.636173E-03
      0.165000          0.585216E-03
      0.170000          0.543764E-03
      0.175000          0.510534E-03
      0.180000          0.484228E-03
      0.185000          0.463546E-03
      0.190000          0.447227E-03
      0.195000          0.434083E-03
      0.200000          0.423040E-03
      0.205000          0.413171E-03
      0.210000          0.403723E-03
      0.215000          0.394121E-03
      0.220000          0.383972E-03
      0.225000          0.373053E-03
      0.230000          0.361286E-03
      0.235000          0.348714E-03
      0.240000          0.335472E-03
      0.245000          0.321758E-03
      0.250000          0.307804E-03
      0.255000          0.293858E-03
      0.260000          0.280162E-03
      0.265000          0.266942E-03
      0.270000          0.254396E-03
      0.275000          0.242694E-03
      0.280000          0.231969E-03
      0.285000          0.222318E-03
      0.290000          0.213806E-03
      0.295000          0.206458E-03
      0.300000          0.200265E-03
      0.305000          0.195185E-03
      0.310000          0.191142E-03
      0.315000          0.188030E-03
      0.320000          0.185720E-03
      0.325000          0.184058E-03
      0.330000          0.182880E-03
      0.335000          0.182015E-03
      0.340000          0.181295E-03
      0.345000          0.180561E-03
      0.350000          0.179677E-03
      0.355000          0.178529E-03
      0.360000          0.177035E-03
      0.365000          0.175146E-03
      0.370000          0.172847E-03
      0.375000          0.170155E-03
      0.380000          0.167114E-03
      0.385000          0.163793E-03
      0.390000          0.160274E-03
      0.395000          0.156649E-03
      0.400000          0.153011E-03
      0.405000          0.149449E-03
      0.410000          0.146041E-03
      0.415000          0.142851E-03
      0.420000          0.139923E-03
      0.425000          0.137285E-03
      0.430000          0.134947E-03
      0.435000          0.132899E-03
      0.440000          0.131119E-03
      0.445000          0.129573E-03
      0.450000          0.128216E-03
      0.455000          0.127001E-03
      0.460000          0.125878E-03
      0.465000          0.124797E-03
      0.470000          0.123713E-03
      0.475000          0.122585E-03
      0.480000          0.121382E-03
      0.485000          0.120080E-03
      0.490000          0.118664E-03
      0.495000          0.117129E-03
      0.500000          0.115476E-03
