 I_abs(s)[cm^-1]/c[mg/ml]
       0.00000          0.130843E-01
      0.500000E-02      0.129653E-01
      0.100000E-01      0.126156E-01
      0.150000E-01      0.120560E-01
      0.200000E-01      0.113190E-01
      0.250000E-01      0.104460E-01
      0.300000E-01      0.948340E-02
      0.350000E-01      0.847889E-02
      0.400000E-01      0.747755E-02
      0.450000E-01      0.651870E-02
      0.500000E-01      0.563356E-02
      0.550000E-01      0.484390E-02
      0.600000E-01      0.416173E-02
      0.650000E-01      0.358998E-02
      0.700000E-01      0.312393E-02
      0.750000E-01      0.275311E-02
      0.800000E-01      0.246346E-02
      0.850000E-01      0.223934E-02
      0.900000E-01      0.206530E-02
      0.950000E-01      0.192745E-02
      0.100000          0.181420E-02
      0.105000          0.171670E-02
      0.110000          0.162869E-02
      0.115000          0.154621E-02
      0.120000          0.146704E-02
      0.125000          0.139018E-02
      0.130000          0.131535E-02
      0.135000          0.124259E-02
      0.140000          0.117206E-02
      0.145000          0.110391E-02
      0.150000          0.103827E-02
      0.155000          0.975314E-03
      0.160000          0.915277E-03
      0.165000          0.858516E-03
      0.170000          0.805492E-03
      0.175000          0.756717E-03
      0.180000          0.712675E-03
      0.185000          0.673727E-03
      0.190000          0.640019E-03
      0.195000          0.611430E-03
      0.200000          0.587543E-03
      0.205000          0.567673E-03
      0.210000          0.550927E-03
      0.215000          0.536288E-03
      0.220000          0.522722E-03
      0.225000          0.509271E-03
      0.230000          0.495143E-03
      0.235000          0.479765E-03
      0.240000          0.462817E-03
      0.245000          0.444232E-03
      0.250000          0.424171E-03
      0.255000          0.402982E-03
      0.260000          0.381148E-03
      0.265000          0.359223E-03
      0.270000          0.337782E-03
      0.275000          0.317367E-03
      0.280000          0.298448E-03
      0.285000          0.281396E-03
      0.290000          0.266464E-03
      0.295000          0.253780E-03
      0.300000          0.243353E-03
      0.305000          0.235084E-03
      0.310000          0.228779E-03
      0.315000          0.224170E-03
      0.320000          0.220937E-03
      0.325000          0.218730E-03
      0.330000          0.217186E-03
      0.335000          0.215948E-03
      0.340000          0.214683E-03
      0.345000          0.213096E-03
      0.350000          0.210942E-03
      0.355000          0.208041E-03
      0.360000          0.204283E-03
      0.365000          0.199636E-03
      0.370000          0.194149E-03
      0.375000          0.187948E-03
      0.380000          0.181223E-03
      0.385000          0.174216E-03
      0.390000          0.167195E-03
      0.395000          0.160428E-03
      0.400000          0.154155E-03
      0.405000          0.148565E-03
      0.410000          0.143774E-03
      0.415000          0.139815E-03
      0.420000          0.136634E-03
      0.425000          0.134106E-03
      0.430000          0.132052E-03
      0.435000          0.130262E-03
      0.440000          0.128528E-03
      0.445000          0.126673E-03
      0.450000          0.124566E-03
      0.455000          0.122143E-03
      0.460000          0.119405E-03
      0.465000          0.116412E-03
      0.470000          0.113269E-03
      0.475000          0.110104E-03
      0.480000          0.107042E-03
      0.485000          0.104193E-03
      0.490000          0.101631E-03
      0.495000          0.993853E-04
      0.500000          0.974477E-04
