 I_abs(s)[cm^-1]/c[mg/ml]
       0.00000          0.144101E-01
      0.500000E-02      0.143433E-01
      0.100000E-01      0.141450E-01
      0.150000E-01      0.138213E-01
      0.200000E-01      0.133819E-01
      0.250000E-01      0.128400E-01
      0.300000E-01      0.122111E-01
      0.350000E-01      0.115125E-01
      0.400000E-01      0.107626E-01
      0.450000E-01      0.997983E-02
      0.500000E-01      0.918213E-02
      0.550000E-01      0.838603E-02
      0.600000E-01      0.760625E-02
      0.650000E-01      0.685530E-02
      0.700000E-01      0.614315E-02
      0.750000E-01      0.547727E-02
      0.800000E-01      0.486259E-02
      0.850000E-01      0.430177E-02
      0.900000E-01      0.379545E-02
      0.950000E-01      0.334259E-02
      0.100000          0.294086E-02
      0.105000          0.258701E-02
      0.110000          0.227719E-02
      0.115000          0.200730E-02
      0.120000          0.177316E-02
      0.125000          0.157074E-02
      0.130000          0.139624E-02
      0.135000          0.124620E-02
      0.140000          0.111745E-02
      0.145000          0.100717E-02
      0.150000          0.912808E-03
      0.155000          0.832099E-03
      0.160000          0.762988E-03
      0.165000          0.703633E-03
      0.170000          0.652388E-03
      0.175000          0.607795E-03
      0.180000          0.568597E-03
      0.185000          0.533738E-03
      0.190000          0.502371E-03
      0.195000          0.473854E-03
      0.200000          0.447742E-03
      0.205000          0.423763E-03
      0.210000          0.401789E-03
      0.215000          0.381793E-03
      0.220000          0.363807E-03
      0.225000          0.347876E-03
      0.230000          0.334017E-03
      0.235000          0.322190E-03
      0.240000          0.312271E-03
      0.245000          0.304047E-03
      0.250000          0.297224E-03
      0.255000          0.291437E-03
      0.260000          0.286281E-03
      0.265000          0.281343E-03
      0.270000          0.276232E-03
      0.275000          0.270613E-03
      0.280000          0.264232E-03
      0.285000          0.256933E-03
      0.290000          0.248665E-03
      0.295000          0.239478E-03
      0.300000          0.229515E-03
      0.305000          0.218986E-03
      0.310000          0.208151E-03
      0.315000          0.197286E-03
      0.320000          0.186665E-03
      0.325000          0.176531E-03
      0.330000          0.167087E-03
      0.335000          0.158477E-03
      0.340000          0.150790E-03
      0.345000          0.144058E-03
      0.350000          0.138267E-03
      0.355000          0.133365E-03
      0.360000          0.129274E-03
      0.365000          0.125908E-03
      0.370000          0.123177E-03
      0.375000          0.120999E-03
      0.380000          0.119303E-03
      0.385000          0.118032E-03
      0.390000          0.117138E-03
      0.395000          0.116582E-03
      0.400000          0.116324E-03
      0.405000          0.116323E-03
      0.410000          0.116528E-03
      0.415000          0.116881E-03
      0.420000          0.117310E-03
      0.425000          0.117738E-03
      0.430000          0.118083E-03
      0.435000          0.118266E-03
      0.440000          0.118215E-03
      0.445000          0.117875E-03
      0.450000          0.117211E-03
      0.455000          0.116210E-03
      0.460000          0.114887E-03
      0.465000          0.113279E-03
      0.470000          0.111444E-03
      0.475000          0.109456E-03
      0.480000          0.107395E-03
      0.485000          0.105342E-03
      0.490000          0.103372E-03
      0.495000          0.101545E-03
      0.500000          0.999040E-04
