 I_abs(s)[cm^-1]/c[mg/ml]
       0.00000          0.148957E-01
      0.500000E-02      0.148168E-01
      0.100000E-01      0.145829E-01
      0.150000E-01      0.142014E-01
      0.200000E-01      0.136846E-01
      0.250000E-01      0.130486E-01
      0.300000E-01      0.123127E-01
      0.350000E-01      0.114983E-01
      0.400000E-01      0.106278E-01
      0.450000E-01      0.972387E-02
      0.500000E-01      0.880812E-02
      0.550000E-01      0.790050E-02
      0.600000E-01      0.701856E-02
      0.650000E-01      0.617702E-02
      0.700000E-01      0.538747E-02
      0.750000E-01      0.465835E-02
      0.800000E-01      0.399507E-02
      0.850000E-01      0.340023E-02
      0.900000E-01      0.287404E-02
      0.950000E-01      0.241472E-02
      0.100000          0.201895E-02
      0.105000          0.168234E-02
      0.110000          0.139981E-02
      0.115000          0.116593E-02
      0.120000          0.975209E-03
      0.125000          0.822266E-03
      0.130000          0.701990E-03
      0.135000          0.609599E-03
      0.140000          0.540688E-03
      0.145000          0.491226E-03
      0.150000          0.457553E-03
      0.155000          0.436368E-03
      0.160000          0.424710E-03
      0.165000          0.419963E-03
      0.170000          0.419843E-03
      0.175000          0.422408E-03
      0.180000          0.426058E-03
      0.185000          0.429533E-03
      0.190000          0.431900E-03
      0.195000          0.432537E-03
      0.200000          0.431100E-03
      0.205000          0.427483E-03
      0.210000          0.421769E-03
      0.215000          0.414181E-03
      0.220000          0.405027E-03
      0.225000          0.394658E-03
      0.230000          0.383422E-03
      0.235000          0.371638E-03
      0.240000          0.359575E-03
      0.245000          0.347444E-03
      0.250000          0.335395E-03
      0.255000          0.323529E-03
      0.260000          0.311905E-03
      0.265000          0.300556E-03
      0.270000          0.289501E-03
      0.275000          0.278757E-03
      0.280000          0.268347E-03
      0.285000          0.258301E-03
      0.290000          0.248658E-03
      0.295000          0.239464E-03
      0.300000          0.230766E-03
      0.305000          0.222606E-03
      0.310000          0.215019E-03
      0.315000          0.208024E-03
      0.320000          0.201626E-03
      0.325000          0.195809E-03
      0.330000          0.190545E-03
      0.335000          0.185786E-03
      0.340000          0.181475E-03
      0.345000          0.177546E-03
      0.350000          0.173924E-03
      0.355000          0.170534E-03
      0.360000          0.167302E-03
      0.365000          0.164157E-03
      0.370000          0.161035E-03
      0.375000          0.157879E-03
      0.380000          0.154645E-03
      0.385000          0.151304E-03
      0.390000          0.147840E-03
      0.395000          0.144256E-03
      0.400000          0.140572E-03
      0.405000          0.136825E-03
      0.410000          0.133068E-03
      0.415000          0.129367E-03
      0.420000          0.125794E-03
      0.425000          0.122426E-03
      0.430000          0.119335E-03
      0.435000          0.116585E-03
      0.440000          0.114223E-03
      0.445000          0.112277E-03
      0.450000          0.110752E-03
      0.455000          0.109626E-03
      0.460000          0.108854E-03
      0.465000          0.108371E-03
      0.470000          0.108093E-03
      0.475000          0.107928E-03
      0.480000          0.107779E-03
      0.485000          0.107552E-03
      0.490000          0.107165E-03
      0.495000          0.106551E-03
      0.500000          0.105665E-03
