 I_abs(s)[cm^-1]/c[mg/ml]
       0.00000          0.144259E-01
      0.500000E-02      0.143549E-01
      0.100000E-01      0.141441E-01
      0.150000E-01      0.138000E-01
      0.200000E-01      0.133329E-01
      0.250000E-01      0.127565E-01
      0.300000E-01      0.120875E-01
      0.350000E-01      0.113444E-01
      0.400000E-01      0.105470E-01
      0.450000E-01      0.971530E-02
      0.500000E-01      0.886894E-02
      0.550000E-01      0.802621E-02
      0.600000E-01      0.720359E-02
      0.650000E-01      0.641517E-02
      0.700000E-01      0.567238E-02
      0.750000E-01      0.498382E-02
      0.800000E-01      0.435523E-02
      0.850000E-01      0.378964E-02
      0.900000E-01      0.328766E-02
      0.950000E-01      0.284777E-02
      0.100000          0.246679E-02
      0.105000          0.214024E-02
      0.110000          0.186284E-02
      0.115000          0.162888E-02
      0.120000          0.143253E-02
      0.125000          0.126819E-02
      0.130000          0.113067E-02
      0.135000          0.101532E-02
      0.140000          0.918137E-03
      0.145000          0.835773E-03
      0.150000          0.765490E-03
      0.155000          0.705116E-03
      0.160000          0.652956E-03
      0.165000          0.607698E-03
      0.170000          0.568327E-03
      0.175000          0.534042E-03
      0.180000          0.504188E-03
      0.185000          0.478203E-03
      0.190000          0.455584E-03
      0.195000          0.435863E-03
      0.200000          0.418601E-03
      0.205000          0.403382E-03
      0.210000          0.389821E-03
      0.215000          0.377567E-03
      0.220000          0.366310E-03
      0.225000          0.355785E-03
      0.230000          0.345772E-03
      0.235000          0.336097E-03
      0.240000          0.326628E-03
      0.245000          0.317271E-03
      0.250000          0.307965E-03
      0.255000          0.298679E-03
      0.260000          0.289402E-03
      0.265000          0.280147E-03
      0.270000          0.270942E-03
      0.275000          0.261833E-03
      0.280000          0.252875E-03
      0.285000          0.244137E-03
      0.290000          0.235690E-03
      0.295000          0.227611E-03
      0.300000          0.219972E-03
      0.305000          0.212836E-03
      0.310000          0.206252E-03
      0.315000          0.200253E-03
      0.320000          0.194843E-03
      0.325000          0.190007E-03
      0.330000          0.185700E-03
      0.335000          0.181856E-03
      0.340000          0.178389E-03
      0.345000          0.175201E-03
      0.350000          0.172189E-03
      0.355000          0.169249E-03
      0.360000          0.166294E-03
      0.365000          0.163248E-03
      0.370000          0.160063E-03
      0.375000          0.156717E-03
      0.380000          0.153213E-03
      0.385000          0.149584E-03
      0.390000          0.145883E-03
      0.395000          0.142183E-03
      0.400000          0.138566E-03
      0.405000          0.135119E-03
      0.410000          0.131922E-03
      0.415000          0.129047E-03
      0.420000          0.126548E-03
      0.425000          0.124458E-03
      0.430000          0.122790E-03
      0.435000          0.121530E-03
      0.440000          0.120646E-03
      0.445000          0.120084E-03
      0.450000          0.119777E-03
      0.455000          0.119647E-03
      0.460000          0.119614E-03
      0.465000          0.119593E-03
      0.470000          0.119508E-03
      0.475000          0.119290E-03
      0.480000          0.118880E-03
      0.485000          0.118234E-03
      0.490000          0.117322E-03
      0.495000          0.116129E-03
      0.500000          0.114650E-03
