 I_abs(s)[cm^-1]/c[mg/ml]
       0.00000          0.146638E-01
      0.500000E-02      0.145960E-01
      0.100000E-01      0.143945E-01
      0.150000E-01      0.140649E-01
      0.200000E-01      0.136164E-01
      0.250000E-01      0.130612E-01
      0.300000E-01      0.124140E-01
      0.350000E-01      0.116916E-01
      0.400000E-01      0.109120E-01
      0.450000E-01      0.100936E-01
      0.500000E-01      0.925489E-02
      0.550000E-01      0.841325E-02
      0.600000E-01      0.758483E-02
      0.650000E-01      0.678388E-02
      0.700000E-01      0.602237E-02
      0.750000E-01      0.530983E-02
      0.800000E-01      0.465319E-02
      0.850000E-01      0.405688E-02
      0.900000E-01      0.352292E-02
      0.950000E-01      0.305117E-02
      0.100000          0.263964E-02
      0.105000          0.228488E-02
      0.110000          0.198231E-02
      0.115000          0.172661E-02
      0.120000          0.151212E-02
      0.125000          0.133308E-02
      0.130000          0.118399E-02
      0.135000          0.105971E-02
      0.140000          0.955692E-03
      0.145000          0.868007E-03
      0.150000          0.793384E-03
      0.155000          0.729194E-03
      0.160000          0.673388E-03
      0.165000          0.624415E-03
      0.170000          0.581131E-03
      0.175000          0.542696E-03
      0.180000          0.508486E-03
      0.185000          0.478014E-03
      0.190000          0.450864E-03
      0.195000          0.426650E-03
      0.200000          0.404990E-03
      0.205000          0.385495E-03
      0.210000          0.367775E-03
      0.215000          0.351452E-03
      0.220000          0.336178E-03
      0.225000          0.321651E-03
      0.230000          0.307636E-03
      0.235000          0.293972E-03
      0.240000          0.280579E-03
      0.245000          0.267452E-03
      0.250000          0.254653E-03
      0.255000          0.242295E-03
      0.260000          0.230522E-03
      0.265000          0.219490E-03
      0.270000          0.209344E-03
      0.275000          0.200204E-03
      0.280000          0.192147E-03
      0.285000          0.185201E-03
      0.290000          0.179343E-03
      0.295000          0.174501E-03
      0.300000          0.170559E-03
      0.305000          0.167372E-03
      0.310000          0.164778E-03
      0.315000          0.162611E-03
      0.320000          0.160717E-03
      0.325000          0.158963E-03
      0.330000          0.157247E-03
      0.335000          0.155505E-03
      0.340000          0.153709E-03
      0.345000          0.151866E-03
      0.350000          0.150014E-03
      0.355000          0.148210E-03
      0.360000          0.146524E-03
      0.365000          0.145029E-03
      0.370000          0.143787E-03
      0.375000          0.142845E-03
      0.380000          0.142228E-03
      0.385000          0.141935E-03
      0.390000          0.141937E-03
      0.395000          0.142180E-03
      0.400000          0.142587E-03
      0.405000          0.143069E-03
      0.410000          0.143525E-03
      0.415000          0.143854E-03
      0.420000          0.143965E-03
      0.425000          0.143776E-03
      0.430000          0.143228E-03
      0.435000          0.142281E-03
      0.440000          0.140922E-03
      0.445000          0.139162E-03
      0.450000          0.137034E-03
      0.455000          0.134590E-03
      0.460000          0.131896E-03
      0.465000          0.129028E-03
      0.470000          0.126063E-03
      0.475000          0.123077E-03
      0.480000          0.120140E-03
      0.485000          0.117311E-03
      0.490000          0.114635E-03
      0.495000          0.112143E-03
      0.500000          0.109850E-03
