 I_abs(s)[cm^-1]/c[mg/ml]
       0.00000          0.145288E-01
      0.500000E-02      0.144621E-01
      0.100000E-01      0.142638E-01
      0.150000E-01      0.139395E-01
      0.200000E-01      0.134979E-01
      0.250000E-01      0.129508E-01
      0.300000E-01      0.123126E-01
      0.350000E-01      0.115995E-01
      0.400000E-01      0.108291E-01
      0.450000E-01      0.100195E-01
      0.500000E-01      0.918889E-02
      0.550000E-01      0.835461E-02
      0.600000E-01      0.753279E-02
      0.650000E-01      0.673781E-02
      0.700000E-01      0.598190E-02
      0.750000E-01      0.527491E-02
      0.800000E-01      0.462417E-02
      0.850000E-01      0.403445E-02
      0.900000E-01      0.350813E-02
      0.950000E-01      0.304531E-02
      0.100000          0.264415E-02
      0.105000          0.230120E-02
      0.110000          0.201173E-02
      0.115000          0.177014E-02
      0.120000          0.157034E-02
      0.125000          0.140608E-02
      0.130000          0.127122E-02
      0.135000          0.116005E-02
      0.140000          0.106742E-02
      0.145000          0.988850E-03
      0.150000          0.920668E-03
      0.155000          0.859950E-03
      0.160000          0.804517E-03
      0.165000          0.752854E-03
      0.170000          0.704014E-03
      0.175000          0.657503E-03
      0.180000          0.613165E-03
      0.185000          0.571064E-03
      0.190000          0.531387E-03
      0.195000          0.494356E-03
      0.200000          0.460164E-03
      0.205000          0.428929E-03
      0.210000          0.400669E-03
      0.215000          0.375300E-03
      0.220000          0.352635E-03
      0.225000          0.332414E-03
      0.230000          0.314321E-03
      0.235000          0.298016E-03
      0.240000          0.283164E-03
      0.245000          0.269459E-03
      0.250000          0.256643E-03
      0.255000          0.244518E-03
      0.260000          0.232953E-03
      0.265000          0.221882E-03
      0.270000          0.211299E-03
      0.275000          0.201242E-03
      0.280000          0.191787E-03
      0.285000          0.183025E-03
      0.290000          0.175052E-03
      0.295000          0.167953E-03
      0.300000          0.161792E-03
      0.305000          0.156602E-03
      0.310000          0.152386E-03
      0.315000          0.149110E-03
      0.320000          0.146706E-03
      0.325000          0.145081E-03
      0.330000          0.144119E-03
      0.335000          0.143689E-03
      0.340000          0.143653E-03
      0.345000          0.143877E-03
      0.350000          0.144231E-03
      0.355000          0.144602E-03
      0.360000          0.144893E-03
      0.365000          0.145025E-03
      0.370000          0.144942E-03
      0.375000          0.144609E-03
      0.380000          0.144009E-03
      0.385000          0.143139E-03
      0.390000          0.142013E-03
      0.395000          0.140651E-03
      0.400000          0.139082E-03
      0.405000          0.137338E-03
      0.410000          0.135451E-03
      0.415000          0.133450E-03
      0.420000          0.131362E-03
      0.425000          0.129211E-03
      0.430000          0.127015E-03
      0.435000          0.124787E-03
      0.440000          0.122537E-03
      0.445000          0.120270E-03
      0.450000          0.117990E-03
      0.455000          0.115700E-03
      0.460000          0.113403E-03
      0.465000          0.111100E-03
      0.470000          0.108797E-03
      0.475000          0.106501E-03
      0.480000          0.104221E-03
      0.485000          0.101969E-03
      0.490000          0.997612E-04
      0.495000          0.976134E-04
      0.500000          0.955451E-04
