 I_abs(s)[cm^-1]/c[mg/ml]
       0.00000          0.146081E-01
      0.500000E-02      0.145473E-01
      0.100000E-01      0.143663E-01
      0.150000E-01      0.140700E-01
      0.200000E-01      0.136664E-01
      0.250000E-01      0.131657E-01
      0.300000E-01      0.125807E-01
      0.350000E-01      0.119256E-01
      0.400000E-01      0.112156E-01
      0.450000E-01      0.104664E-01
      0.500000E-01      0.969327E-02
      0.550000E-01      0.891110E-02
      0.600000E-01      0.813342E-02
      0.650000E-01      0.737231E-02
      0.700000E-01      0.663807E-02
      0.750000E-01      0.593910E-02
      0.800000E-01      0.528190E-02
      0.850000E-01      0.467105E-02
      0.900000E-01      0.410942E-02
      0.950000E-01      0.359829E-02
      0.100000          0.313761E-02
      0.105000          0.272625E-02
      0.110000          0.236218E-02
      0.115000          0.204276E-02
      0.120000          0.176492E-02
      0.125000          0.152528E-02
      0.130000          0.132039E-02
      0.135000          0.114675E-02
      0.140000          0.100093E-02
      0.145000          0.879640E-03
      0.150000          0.779735E-03
      0.155000          0.698273E-03
      0.160000          0.632513E-03
      0.165000          0.579937E-03
      0.170000          0.538250E-03
      0.175000          0.505390E-03
      0.180000          0.479526E-03
      0.185000          0.459060E-03
      0.190000          0.442622E-03
      0.195000          0.429064E-03
      0.200000          0.417442E-03
      0.205000          0.407012E-03
      0.210000          0.397198E-03
      0.215000          0.387580E-03
      0.220000          0.377869E-03
      0.225000          0.367883E-03
      0.230000          0.357527E-03
      0.235000          0.346771E-03
      0.240000          0.335638E-03
      0.245000          0.324186E-03
      0.250000          0.312496E-03
      0.255000          0.300666E-03
      0.260000          0.288805E-03
      0.265000          0.277021E-03
      0.270000          0.265426E-03
      0.275000          0.254121E-03
      0.280000          0.243201E-03
      0.285000          0.232749E-03
      0.290000          0.222829E-03
      0.295000          0.213489E-03
      0.300000          0.204756E-03
      0.305000          0.196639E-03
      0.310000          0.189127E-03
      0.315000          0.182193E-03
      0.320000          0.175801E-03
      0.325000          0.169907E-03
      0.330000          0.164463E-03
      0.335000          0.159430E-03
      0.340000          0.154772E-03
      0.345000          0.150467E-03
      0.350000          0.146504E-03
      0.355000          0.142886E-03
      0.360000          0.139625E-03
      0.365000          0.136741E-03
      0.370000          0.134256E-03
      0.375000          0.132191E-03
      0.380000          0.130558E-03
      0.385000          0.129360E-03
      0.390000          0.128582E-03
      0.395000          0.128194E-03
      0.400000          0.128149E-03
      0.405000          0.128383E-03
      0.410000          0.128820E-03
      0.415000          0.129374E-03
      0.420000          0.129956E-03
      0.425000          0.130477E-03
      0.430000          0.130854E-03
      0.435000          0.131015E-03
      0.440000          0.130900E-03
      0.445000          0.130467E-03
      0.450000          0.129692E-03
      0.455000          0.128568E-03
      0.460000          0.127102E-03
      0.465000          0.125318E-03
      0.470000          0.123251E-03
      0.475000          0.120943E-03
      0.480000          0.118442E-03
      0.485000          0.115797E-03
      0.490000          0.113056E-03
      0.495000          0.110265E-03
      0.500000          0.107464E-03
