 I_abs(s)[cm^-1]/c[mg/ml]
       0.00000          0.128223E-01
      0.500000E-02      0.126912E-01
      0.100000E-01      0.123061E-01
      0.150000E-01      0.116918E-01
      0.200000E-01      0.108868E-01
      0.250000E-01      0.993954E-02
      0.300000E-01      0.890464E-02
      0.350000E-01      0.783758E-02
      0.400000E-01      0.679031E-02
      0.450000E-01      0.580732E-02
      0.500000E-01      0.492272E-02
      0.550000E-01      0.415861E-02
      0.600000E-01      0.352481E-02
      0.650000E-01      0.301980E-02
      0.700000E-01      0.263267E-02
      0.750000E-01      0.234581E-02
      0.800000E-01      0.213781E-02
      0.850000E-01      0.198638E-02
      0.900000E-01      0.187081E-02
      0.950000E-01      0.177377E-02
      0.100000          0.168248E-02
      0.105000          0.158896E-02
      0.110000          0.148972E-02
      0.115000          0.138491E-02
      0.120000          0.127715E-02
      0.125000          0.117034E-02
      0.130000          0.106855E-02
      0.135000          0.975175E-03
      0.140000          0.892396E-03
      0.145000          0.821022E-03
      0.150000          0.760606E-03
      0.155000          0.709772E-03
      0.160000          0.666657E-03
      0.165000          0.629341E-03
      0.170000          0.596204E-03
      0.175000          0.566138E-03
      0.180000          0.538601E-03
      0.185000          0.513539E-03
      0.190000          0.491193E-03
      0.195000          0.471871E-03
      0.200000          0.455729E-03
      0.205000          0.442609E-03
      0.210000          0.431974E-03
      0.215000          0.422932E-03
      0.220000          0.414355E-03
      0.225000          0.405052E-03
      0.230000          0.393965E-03
      0.235000          0.380346E-03
      0.240000          0.363877E-03
      0.245000          0.344725E-03
      0.250000          0.323515E-03
      0.255000          0.301229E-03
      0.260000          0.279054E-03
      0.265000          0.258215E-03
      0.270000          0.239801E-03
      0.275000          0.224630E-03
      0.280000          0.213164E-03
      0.285000          0.205477E-03
      0.290000          0.201286E-03
      0.295000          0.200021E-03
      0.300000          0.200927E-03
      0.305000          0.203182E-03
      0.310000          0.205994E-03
      0.315000          0.208692E-03
      0.320000          0.210772E-03
      0.325000          0.211921E-03
      0.330000          0.212005E-03
      0.335000          0.211042E-03
      0.340000          0.209153E-03
      0.345000          0.206522E-03
      0.350000          0.203352E-03
      0.355000          0.199836E-03
      0.360000          0.196139E-03
      0.365000          0.192392E-03
      0.370000          0.188694E-03
      0.375000          0.185119E-03
      0.380000          0.181721E-03
      0.385000          0.178539E-03
      0.390000          0.175601E-03
      0.395000          0.172921E-03
      0.400000          0.170492E-03
      0.405000          0.168288E-03
      0.410000          0.166260E-03
      0.415000          0.164339E-03
      0.420000          0.162447E-03
      0.425000          0.160505E-03
      0.430000          0.158443E-03
      0.435000          0.156216E-03
      0.440000          0.153808E-03
      0.445000          0.151237E-03
      0.450000          0.148550E-03
      0.455000          0.145817E-03
      0.460000          0.143112E-03
      0.465000          0.140507E-03
      0.470000          0.138050E-03
      0.475000          0.135763E-03
      0.480000          0.133633E-03
      0.485000          0.131615E-03
      0.490000          0.129641E-03
      0.495000          0.127632E-03
      0.500000          0.125512E-03
