 I_abs(s)[cm^-1]/c[mg/ml]
       0.00000          0.148395E-01
      0.500000E-02      0.147800E-01
      0.100000E-01      0.146028E-01
      0.150000E-01      0.143122E-01
      0.200000E-01      0.139152E-01
      0.250000E-01      0.134211E-01
      0.300000E-01      0.128413E-01
      0.350000E-01      0.121887E-01
      0.400000E-01      0.114777E-01
      0.450000E-01      0.107229E-01
      0.500000E-01      0.993955E-02
      0.550000E-01      0.914227E-02
      0.600000E-01      0.834505E-02
      0.650000E-01      0.756071E-02
      0.700000E-01      0.680065E-02
      0.750000E-01      0.607455E-02
      0.800000E-01      0.539025E-02
      0.850000E-01      0.475370E-02
      0.900000E-01      0.416894E-02
      0.950000E-01      0.363818E-02
      0.100000          0.316201E-02
      0.105000          0.273952E-02
      0.110000          0.236858E-02
      0.115000          0.204610E-02
      0.120000          0.176824E-02
      0.125000          0.153071E-02
      0.130000          0.132900E-02
      0.135000          0.115855E-02
      0.140000          0.101497E-02
      0.145000          0.894130E-03
      0.150000          0.792293E-03
      0.155000          0.706163E-03
      0.160000          0.632913E-03
      0.165000          0.570182E-03
      0.170000          0.516054E-03
      0.175000          0.469013E-03
      0.180000          0.427888E-03
      0.185000          0.391797E-03
      0.190000          0.360084E-03
      0.195000          0.332263E-03
      0.200000          0.307967E-03
      0.205000          0.286905E-03
      0.210000          0.268827E-03
      0.215000          0.253502E-03
      0.220000          0.240703E-03
      0.225000          0.230194E-03
      0.230000          0.221732E-03
      0.235000          0.215066E-03
      0.240000          0.209942E-03
      0.245000          0.206113E-03
      0.250000          0.203338E-03
      0.255000          0.201395E-03
      0.260000          0.200081E-03
      0.265000          0.199215E-03
      0.270000          0.198641E-03
      0.275000          0.198230E-03
      0.280000          0.197873E-03
      0.285000          0.197486E-03
      0.290000          0.197003E-03
      0.295000          0.196375E-03
      0.300000          0.195571E-03
      0.305000          0.194570E-03
      0.310000          0.193363E-03
      0.315000          0.191951E-03
      0.320000          0.190344E-03
      0.325000          0.188556E-03
      0.330000          0.186611E-03
      0.335000          0.184533E-03
      0.340000          0.182352E-03
      0.345000          0.180097E-03
      0.350000          0.177799E-03
      0.355000          0.175483E-03
      0.360000          0.173175E-03
      0.365000          0.170892E-03
      0.370000          0.168645E-03
      0.375000          0.166439E-03
      0.380000          0.164272E-03
      0.385000          0.162134E-03
      0.390000          0.160008E-03
      0.395000          0.157873E-03
      0.400000          0.155705E-03
      0.405000          0.153477E-03
      0.410000          0.151163E-03
      0.415000          0.148741E-03
      0.420000          0.146190E-03
      0.425000          0.143497E-03
      0.430000          0.140656E-03
      0.435000          0.137669E-03
      0.440000          0.134544E-03
      0.445000          0.131299E-03
      0.450000          0.127959E-03
      0.455000          0.124554E-03
      0.460000          0.121118E-03
      0.465000          0.117691E-03
      0.470000          0.114311E-03
      0.475000          0.111019E-03
      0.480000          0.107851E-03
      0.485000          0.104842E-03
      0.490000          0.102021E-03
      0.495000          0.994117E-04
      0.500000          0.970304E-04
