 I_abs(s)[cm^-1]/c[mg/ml]
       0.00000          0.142998E-01
      0.500000E-02      0.142424E-01
      0.100000E-01      0.140714E-01
      0.150000E-01      0.137905E-01
      0.200000E-01      0.134055E-01
      0.250000E-01      0.129246E-01
      0.300000E-01      0.123576E-01
      0.350000E-01      0.117160E-01
      0.400000E-01      0.110126E-01
      0.450000E-01      0.102609E-01
      0.500000E-01      0.947497E-02
      0.550000E-01      0.866900E-02
      0.600000E-01      0.785685E-02
      0.650000E-01      0.705173E-02
      0.700000E-01      0.626590E-02
      0.750000E-01      0.551038E-02
      0.800000E-01      0.479471E-02
      0.850000E-01      0.412683E-02
      0.900000E-01      0.351294E-02
      0.950000E-01      0.295744E-02
      0.100000          0.246300E-02
      0.105000          0.203058E-02
      0.110000          0.165958E-02
      0.115000          0.134798E-02
      0.120000          0.109254E-02
      0.125000          0.889032E-03
      0.130000          0.732446E-03
      0.135000          0.617240E-03
      0.140000          0.537566E-03
      0.145000          0.487488E-03
      0.150000          0.461178E-03
      0.155000          0.453090E-03
      0.160000          0.458103E-03
      0.165000          0.471628E-03
      0.170000          0.489692E-03
      0.175000          0.508978E-03
      0.180000          0.526844E-03
      0.185000          0.541310E-03
      0.190000          0.551020E-03
      0.195000          0.555190E-03
      0.200000          0.553530E-03
      0.205000          0.546172E-03
      0.210000          0.533579E-03
      0.215000          0.516460E-03
      0.220000          0.495688E-03
      0.225000          0.472217E-03
      0.230000          0.447023E-03
      0.235000          0.421038E-03
      0.240000          0.395110E-03
      0.245000          0.369969E-03
      0.250000          0.346202E-03
      0.255000          0.324248E-03
      0.260000          0.304394E-03
      0.265000          0.286787E-03
      0.270000          0.271444E-03
      0.275000          0.258276E-03
      0.280000          0.247109E-03
      0.285000          0.237708E-03
      0.290000          0.229800E-03
      0.295000          0.223096E-03
      0.300000          0.217311E-03
      0.305000          0.212179E-03
      0.310000          0.207469E-03
      0.315000          0.202987E-03
      0.320000          0.198586E-03
      0.325000          0.194164E-03
      0.330000          0.189665E-03
      0.335000          0.185072E-03
      0.340000          0.180401E-03
      0.345000          0.175695E-03
      0.350000          0.171016E-03
      0.355000          0.166434E-03
      0.360000          0.162024E-03
      0.365000          0.157855E-03
      0.370000          0.153987E-03
      0.375000          0.150467E-03
      0.380000          0.147324E-03
      0.385000          0.144570E-03
      0.390000          0.142198E-03
      0.395000          0.140187E-03
      0.400000          0.138499E-03
      0.405000          0.137086E-03
      0.410000          0.135890E-03
      0.415000          0.134849E-03
      0.420000          0.133901E-03
      0.425000          0.132984E-03
      0.430000          0.132041E-03
      0.435000          0.131024E-03
      0.440000          0.129893E-03
      0.445000          0.128618E-03
      0.450000          0.127181E-03
      0.455000          0.125574E-03
      0.460000          0.123799E-03
      0.465000          0.121868E-03
      0.470000          0.119800E-03
      0.475000          0.117622E-03
      0.480000          0.115365E-03
      0.485000          0.113060E-03
      0.490000          0.110742E-03
      0.495000          0.108444E-03
      0.500000          0.106199E-03
