 I_abs(s)[cm^-1]/c[mg/ml]
       0.00000          0.143155E-01
      0.500000E-02      0.142434E-01
      0.100000E-01      0.140291E-01
      0.150000E-01      0.136795E-01
      0.200000E-01      0.132052E-01
      0.250000E-01      0.126204E-01
      0.300000E-01      0.119423E-01
      0.350000E-01      0.111903E-01
      0.400000E-01      0.103847E-01
      0.450000E-01      0.954640E-02
      0.500000E-01      0.869579E-02
      0.550000E-01      0.785188E-02
      0.600000E-01      0.703174E-02
      0.650000E-01      0.624996E-02
      0.700000E-01      0.551826E-02
      0.750000E-01      0.484532E-02
      0.800000E-01      0.423675E-02
      0.850000E-01      0.369522E-02
      0.900000E-01      0.322074E-02
      0.950000E-01      0.281099E-02
      0.100000          0.246183E-02
      0.105000          0.216773E-02
      0.110000          0.192226E-02
      0.115000          0.171861E-02
      0.120000          0.154991E-02
      0.125000          0.140966E-02
      0.130000          0.129195E-02
      0.135000          0.119165E-02
      0.140000          0.110450E-02
      0.145000          0.102715E-02
      0.150000          0.957120E-03
      0.155000          0.892670E-03
      0.160000          0.832725E-03
      0.165000          0.776710E-03
      0.170000          0.724411E-03
      0.175000          0.675838E-03
      0.180000          0.631109E-03
      0.185000          0.590358E-03
      0.190000          0.553664E-03
      0.195000          0.521012E-03
      0.200000          0.492278E-03
      0.205000          0.467228E-03
      0.210000          0.445536E-03
      0.215000          0.426811E-03
      0.220000          0.410623E-03
      0.225000          0.396539E-03
      0.230000          0.384137E-03
      0.235000          0.373036E-03
      0.240000          0.362900E-03
      0.245000          0.353447E-03
      0.250000          0.344446E-03
      0.255000          0.335713E-03
      0.260000          0.327103E-03
      0.265000          0.318504E-03
      0.270000          0.309824E-03
      0.275000          0.300992E-03
      0.280000          0.291951E-03
      0.285000          0.282658E-03
      0.290000          0.273088E-03
      0.295000          0.263234E-03
      0.300000          0.253111E-03
      0.305000          0.242760E-03
      0.310000          0.232251E-03
      0.315000          0.221680E-03
      0.320000          0.211168E-03
      0.325000          0.200854E-03
      0.330000          0.190892E-03
      0.335000          0.181436E-03
      0.340000          0.172635E-03
      0.345000          0.164622E-03
      0.350000          0.157504E-03
      0.355000          0.151356E-03
      0.360000          0.146215E-03
      0.365000          0.142079E-03
      0.370000          0.138909E-03
      0.375000          0.136625E-03
      0.380000          0.135121E-03
      0.385000          0.134265E-03
      0.390000          0.133912E-03
      0.395000          0.133911E-03
      0.400000          0.134111E-03
      0.405000          0.134376E-03
      0.410000          0.134584E-03
      0.415000          0.134634E-03
      0.420000          0.134450E-03
      0.425000          0.133984E-03
      0.430000          0.133208E-03
      0.435000          0.132120E-03
      0.440000          0.130733E-03
      0.445000          0.129077E-03
      0.450000          0.127191E-03
      0.455000          0.125118E-03
      0.460000          0.122905E-03
      0.465000          0.120593E-03
      0.470000          0.118222E-03
      0.475000          0.115821E-03
      0.480000          0.113417E-03
      0.485000          0.111024E-03
      0.490000          0.108653E-03
      0.495000          0.106308E-03
      0.500000          0.103990E-03
