 I_abs(s)[cm^-1]/c[mg/ml]
       0.00000          0.140415E-01
      0.500000E-02      0.139634E-01
      0.100000E-01      0.137319E-01
      0.150000E-01      0.133541E-01
      0.200000E-01      0.128420E-01
      0.250000E-01      0.122114E-01
      0.300000E-01      0.114813E-01
      0.350000E-01      0.106730E-01
      0.400000E-01      0.980926E-02
      0.450000E-01      0.891310E-02
      0.500000E-01      0.800710E-02
      0.550000E-01      0.711237E-02
      0.600000E-01      0.624784E-02
      0.650000E-01      0.542970E-02
      0.700000E-01      0.467094E-02
      0.750000E-01      0.398120E-02
      0.800000E-01      0.336665E-02
      0.850000E-01      0.283018E-02
      0.900000E-01      0.237167E-02
      0.950000E-01      0.198835E-02
      0.100000          0.167533E-02
      0.105000          0.142607E-02
      0.110000          0.123295E-02
      0.115000          0.108775E-02
      0.120000          0.982129E-03
      0.125000          0.908006E-03
      0.130000          0.857886E-03
      0.135000          0.825080E-03
      0.140000          0.803849E-03
      0.145000          0.789470E-03
      0.150000          0.778232E-03
      0.155000          0.767380E-03
      0.160000          0.755019E-03
      0.165000          0.739990E-03
      0.170000          0.721738E-03
      0.175000          0.700176E-03
      0.180000          0.675559E-03
      0.185000          0.648369E-03
      0.190000          0.619227E-03
      0.195000          0.588811E-03
      0.200000          0.557799E-03
      0.205000          0.526832E-03
      0.210000          0.496486E-03
      0.215000          0.467252E-03
      0.220000          0.439531E-03
      0.225000          0.413630E-03
      0.230000          0.389766E-03
      0.235000          0.368066E-03
      0.240000          0.348572E-03
      0.245000          0.331254E-03
      0.250000          0.316011E-03
      0.255000          0.302687E-03
      0.260000          0.291080E-03
      0.265000          0.280953E-03
      0.270000          0.272054E-03
      0.275000          0.264122E-03
      0.280000          0.256909E-03
      0.285000          0.250185E-03
      0.290000          0.243754E-03
      0.295000          0.237460E-03
      0.300000          0.231189E-03
      0.305000          0.224874E-03
      0.310000          0.218492E-03
      0.315000          0.212056E-03
      0.320000          0.205613E-03
      0.325000          0.199230E-03
      0.330000          0.192986E-03
      0.335000          0.186964E-03
      0.340000          0.181241E-03
      0.345000          0.175883E-03
      0.350000          0.170938E-03
      0.355000          0.166432E-03
      0.360000          0.162372E-03
      0.365000          0.158748E-03
      0.370000          0.155529E-03
      0.375000          0.152674E-03
      0.380000          0.150134E-03
      0.385000          0.147856E-03
      0.390000          0.145787E-03
      0.395000          0.143879E-03
      0.400000          0.142089E-03
      0.405000          0.140384E-03
      0.410000          0.138738E-03
      0.415000          0.137132E-03
      0.420000          0.135557E-03
      0.425000          0.134007E-03
      0.430000          0.132480E-03
      0.435000          0.130977E-03
      0.440000          0.129499E-03
      0.445000          0.128047E-03
      0.450000          0.126620E-03
      0.455000          0.125216E-03
      0.460000          0.123830E-03
      0.465000          0.122457E-03
      0.470000          0.121088E-03
      0.475000          0.119717E-03
      0.480000          0.118336E-03
      0.485000          0.116938E-03
      0.490000          0.115517E-03
      0.495000          0.114069E-03
      0.500000          0.112594E-03
