 I_abs(s)[cm^-1]/c[mg/ml]
       0.00000          0.147675E-01
      0.500000E-02      0.146973E-01
      0.100000E-01      0.144885E-01
      0.150000E-01      0.141465E-01
      0.200000E-01      0.136800E-01
      0.250000E-01      0.131009E-01
      0.300000E-01      0.124234E-01
      0.350000E-01      0.116639E-01
      0.400000E-01      0.108402E-01
      0.450000E-01      0.997077E-02
      0.500000E-01      0.907442E-02
      0.550000E-01      0.816936E-02
      0.600000E-01      0.727280E-02
      0.650000E-01      0.640043E-02
      0.700000E-01      0.556603E-02
      0.750000E-01      0.478118E-02
      0.800000E-01      0.405506E-02
      0.850000E-01      0.339440E-02
      0.900000E-01      0.280347E-02
      0.950000E-01      0.228422E-02
      0.100000          0.183648E-02
      0.105000          0.145819E-02
      0.110000          0.114573E-02
      0.115000          0.894227E-03
      0.120000          0.697877E-03
      0.125000          0.550290E-03
      0.130000          0.444777E-03
      0.135000          0.374622E-03
      0.140000          0.333317E-03
      0.145000          0.314740E-03
      0.150000          0.313301E-03
      0.155000          0.324040E-03
      0.160000          0.342676E-03
      0.165000          0.365633E-03
      0.170000          0.390021E-03
      0.175000          0.413603E-03
      0.180000          0.434733E-03
      0.185000          0.452296E-03
      0.190000          0.465623E-03
      0.195000          0.474420E-03
      0.200000          0.478687E-03
      0.205000          0.478647E-03
      0.210000          0.474685E-03
      0.215000          0.467284E-03
      0.220000          0.456986E-03
      0.225000          0.444347E-03
      0.230000          0.429910E-03
      0.235000          0.414184E-03
      0.240000          0.397630E-03
      0.245000          0.380653E-03
      0.250000          0.363597E-03
      0.255000          0.346750E-03
      0.260000          0.330344E-03
      0.265000          0.314563E-03
      0.270000          0.299548E-03
      0.275000          0.285402E-03
      0.280000          0.272200E-03
      0.285000          0.259990E-03
      0.290000          0.248798E-03
      0.295000          0.238633E-03
      0.300000          0.229485E-03
      0.305000          0.221332E-03
      0.310000          0.214132E-03
      0.315000          0.207834E-03
      0.320000          0.202369E-03
      0.325000          0.197659E-03
      0.330000          0.193611E-03
      0.335000          0.190125E-03
      0.340000          0.187094E-03
      0.345000          0.184410E-03
      0.350000          0.181963E-03
      0.355000          0.179650E-03
      0.360000          0.177376E-03
      0.365000          0.175058E-03
      0.370000          0.172628E-03
      0.375000          0.170037E-03
      0.380000          0.167250E-03
      0.385000          0.164253E-03
      0.390000          0.161049E-03
      0.395000          0.157653E-03
      0.400000          0.154095E-03
      0.405000          0.150415E-03
      0.410000          0.146657E-03
      0.415000          0.142869E-03
      0.420000          0.139101E-03
      0.425000          0.135396E-03
      0.430000          0.131798E-03
      0.435000          0.128339E-03
      0.440000          0.125050E-03
      0.445000          0.121951E-03
      0.450000          0.119057E-03
      0.455000          0.116377E-03
      0.460000          0.113914E-03
      0.465000          0.111668E-03
      0.470000          0.109634E-03
      0.475000          0.107807E-03
      0.480000          0.106177E-03
      0.485000          0.104736E-03
      0.490000          0.103473E-03
      0.495000          0.102374E-03
      0.500000          0.101427E-03
