 I_abs(s)[cm^-1]/c[mg/ml]
       0.00000          0.145129E-01
      0.500000E-02      0.144501E-01
      0.100000E-01      0.142633E-01
      0.150000E-01      0.139573E-01
      0.200000E-01      0.135401E-01
      0.250000E-01      0.130220E-01
      0.300000E-01      0.124159E-01
      0.350000E-01      0.117364E-01
      0.400000E-01      0.109990E-01
      0.450000E-01      0.102202E-01
      0.500000E-01      0.941627E-02
      0.550000E-01      0.860300E-02
      0.600000E-01      0.779519E-02
      0.650000E-01      0.700619E-02
      0.700000E-01      0.624759E-02
      0.750000E-01      0.552902E-02
      0.800000E-01      0.485798E-02
      0.850000E-01      0.423989E-02
      0.900000E-01      0.367810E-02
      0.950000E-01      0.317407E-02
      0.100000          0.272758E-02
      0.105000          0.233697E-02
      0.110000          0.199945E-02
      0.115000          0.171132E-02
      0.120000          0.146833E-02
      0.125000          0.126587E-02
      0.130000          0.109923E-02
      0.135000          0.963739E-03
      0.140000          0.854970E-03
      0.145000          0.768784E-03
      0.150000          0.701421E-03
      0.155000          0.649517E-03
      0.160000          0.610114E-03
      0.165000          0.580636E-03
      0.170000          0.558862E-03
      0.175000          0.542886E-03
      0.180000          0.531082E-03
      0.185000          0.522065E-03
      0.190000          0.514667E-03
      0.195000          0.507909E-03
      0.200000          0.500989E-03
      0.205000          0.493266E-03
      0.210000          0.484260E-03
      0.215000          0.473640E-03
      0.220000          0.461225E-03
      0.225000          0.446970E-03
      0.230000          0.430961E-03
      0.235000          0.413394E-03
      0.240000          0.394562E-03
      0.245000          0.374826E-03
      0.250000          0.354593E-03
      0.255000          0.334289E-03
      0.260000          0.314333E-03
      0.265000          0.295112E-03
      0.270000          0.276963E-03
      0.275000          0.260155E-03
      0.280000          0.244882E-03
      0.285000          0.231256E-03
      0.290000          0.219310E-03
      0.295000          0.209006E-03
      0.300000          0.200240E-03
      0.305000          0.192862E-03
      0.310000          0.186688E-03
      0.315000          0.181514E-03
      0.320000          0.177133E-03
      0.325000          0.173348E-03
      0.330000          0.169981E-03
      0.335000          0.166882E-03
      0.340000          0.163932E-03
      0.345000          0.161046E-03
      0.350000          0.158174E-03
      0.355000          0.155292E-03
      0.360000          0.152402E-03
      0.365000          0.149528E-03
      0.370000          0.146703E-03
      0.375000          0.143970E-03
      0.380000          0.141374E-03
      0.385000          0.138956E-03
      0.390000          0.136752E-03
      0.395000          0.134789E-03
      0.400000          0.133085E-03
      0.405000          0.131645E-03
      0.410000          0.130466E-03
      0.415000          0.129532E-03
      0.420000          0.128820E-03
      0.425000          0.128300E-03
      0.430000          0.127935E-03
      0.435000          0.127682E-03
      0.440000          0.127497E-03
      0.445000          0.127333E-03
      0.450000          0.127142E-03
      0.455000          0.126879E-03
      0.460000          0.126501E-03
      0.465000          0.125967E-03
      0.470000          0.125243E-03
      0.475000          0.124301E-03
      0.480000          0.123121E-03
      0.485000          0.121691E-03
      0.490000          0.120009E-03
      0.495000          0.118080E-03
      0.500000          0.115922E-03
