 I_abs(s)[cm^-1]/c[mg/ml]
       0.00000          0.147037E-01
      0.500000E-02      0.146416E-01
      0.100000E-01      0.144571E-01
      0.150000E-01      0.141545E-01
      0.200000E-01      0.137411E-01
      0.250000E-01      0.132267E-01
      0.300000E-01      0.126234E-01
      0.350000E-01      0.119447E-01
      0.400000E-01      0.112056E-01
      0.450000E-01      0.104219E-01
      0.500000E-01      0.960947E-02
      0.550000E-01      0.878396E-02
      0.600000E-01      0.796025E-02
      0.650000E-01      0.715207E-02
      0.700000E-01      0.637163E-02
      0.750000E-01      0.562938E-02
      0.800000E-01      0.493379E-02
      0.850000E-01      0.429130E-02
      0.900000E-01      0.370632E-02
      0.950000E-01      0.318125E-02
      0.100000          0.271666E-02
      0.105000          0.231149E-02
      0.110000          0.196325E-02
      0.115000          0.166834E-02
      0.120000          0.142228E-02
      0.125000          0.122000E-02
      0.130000          0.105613E-02
      0.135000          0.925205E-03
      0.140000          0.821878E-03
      0.145000          0.741109E-03
      0.150000          0.678285E-03
      0.155000          0.629315E-03
      0.160000          0.590681E-03
      0.165000          0.559462E-03
      0.170000          0.533320E-03
      0.175000          0.510467E-03
      0.180000          0.489609E-03
      0.185000          0.469883E-03
      0.190000          0.450780E-03
      0.195000          0.432075E-03
      0.200000          0.413748E-03
      0.205000          0.395923E-03
      0.210000          0.378802E-03
      0.215000          0.362625E-03
      0.220000          0.347620E-03
      0.225000          0.333982E-03
      0.230000          0.321851E-03
      0.235000          0.311302E-03
      0.240000          0.302339E-03
      0.245000          0.294902E-03
      0.250000          0.288873E-03
      0.255000          0.284086E-03
      0.260000          0.280338E-03
      0.265000          0.277407E-03
      0.270000          0.275058E-03
      0.275000          0.273062E-03
      0.280000          0.271201E-03
      0.285000          0.269280E-03
      0.290000          0.267134E-03
      0.295000          0.264630E-03
      0.300000          0.261671E-03
      0.305000          0.258199E-03
      0.310000          0.254186E-03
      0.315000          0.249643E-03
      0.320000          0.244604E-03
      0.325000          0.239129E-03
      0.330000          0.233295E-03
      0.335000          0.227191E-03
      0.340000          0.220913E-03
      0.345000          0.214555E-03
      0.350000          0.208209E-03
      0.355000          0.201956E-03
      0.360000          0.195865E-03
      0.365000          0.189991E-03
      0.370000          0.184373E-03
      0.375000          0.179034E-03
      0.380000          0.173980E-03
      0.385000          0.169206E-03
      0.390000          0.164693E-03
      0.395000          0.160414E-03
      0.400000          0.156337E-03
      0.405000          0.152426E-03
      0.410000          0.148646E-03
      0.415000          0.144966E-03
      0.420000          0.141360E-03
      0.425000          0.137809E-03
      0.430000          0.134303E-03
      0.435000          0.130839E-03
      0.440000          0.127424E-03
      0.445000          0.124074E-03
      0.450000          0.120809E-03
      0.455000          0.117656E-03
      0.460000          0.114641E-03
      0.465000          0.111793E-03
      0.470000          0.109140E-03
      0.475000          0.106703E-03
      0.480000          0.104500E-03
      0.485000          0.102539E-03
      0.490000          0.100821E-03
      0.495000          0.993400E-04
      0.500000          0.980778E-04
