 I_abs(s)[cm^-1]/c[mg/ml]
       0.00000          0.144812E-01
      0.500000E-02      0.143977E-01
      0.100000E-01      0.141505E-01
      0.150000E-01      0.137490E-01
      0.200000E-01      0.132086E-01
      0.250000E-01      0.125491E-01
      0.300000E-01      0.117939E-01
      0.350000E-01      0.109687E-01
      0.400000E-01      0.100995E-01
      0.450000E-01      0.921207E-02
      0.500000E-01      0.832978E-02
      0.550000E-01      0.747326E-02
      0.600000E-01      0.665943E-02
      0.650000E-01      0.590114E-02
      0.700000E-01      0.520711E-02
      0.750000E-01      0.458209E-02
      0.800000E-01      0.402734E-02
      0.850000E-01      0.354117E-02
      0.900000E-01      0.311967E-02
      0.950000E-01      0.275740E-02
      0.100000          0.244805E-02
      0.105000          0.218499E-02
      0.110000          0.196178E-02
      0.115000          0.177243E-02
      0.120000          0.161160E-02
      0.125000          0.147468E-02
      0.130000          0.135773E-02
      0.135000          0.125744E-02
      0.140000          0.117099E-02
      0.145000          0.109592E-02
      0.150000          0.103009E-02
      0.155000          0.971540E-03
      0.160000          0.918537E-03
      0.165000          0.869530E-03
      0.170000          0.823192E-03
      0.175000          0.778452E-03
      0.180000          0.734529E-03
      0.185000          0.690952E-03
      0.190000          0.647554E-03
      0.195000          0.604450E-03
      0.200000          0.561983E-03
      0.205000          0.520659E-03
      0.210000          0.481066E-03
      0.215000          0.443797E-03
      0.220000          0.409375E-03
      0.225000          0.378200E-03
      0.230000          0.350513E-03
      0.235000          0.326380E-03
      0.240000          0.305703E-03
      0.245000          0.288243E-03
      0.250000          0.273661E-03
      0.255000          0.261554E-03
      0.260000          0.251505E-03
      0.265000          0.243113E-03
      0.270000          0.236023E-03
      0.275000          0.229942E-03
      0.280000          0.224639E-03
      0.285000          0.219943E-03
      0.290000          0.215729E-03
      0.295000          0.211907E-03
      0.300000          0.208400E-03
      0.305000          0.205140E-03
      0.310000          0.202053E-03
      0.315000          0.199065E-03
      0.320000          0.196096E-03
      0.325000          0.193074E-03
      0.330000          0.189938E-03
      0.335000          0.186647E-03
      0.340000          0.183188E-03
      0.345000          0.179573E-03
      0.350000          0.175843E-03
      0.355000          0.172056E-03
      0.360000          0.168287E-03
      0.365000          0.164611E-03
      0.370000          0.161093E-03
      0.375000          0.157785E-03
      0.380000          0.154713E-03
      0.385000          0.151878E-03
      0.390000          0.149256E-03
      0.395000          0.146804E-03
      0.400000          0.144461E-03
      0.405000          0.142165E-03
      0.410000          0.139855E-03
      0.415000          0.137481E-03
      0.420000          0.135010E-03
      0.425000          0.132431E-03
      0.430000          0.129753E-03
      0.435000          0.127002E-03
      0.440000          0.124222E-03
      0.445000          0.121465E-03
      0.450000          0.118782E-03
      0.455000          0.116225E-03
      0.460000          0.113834E-03
      0.465000          0.111637E-03
      0.470000          0.109648E-03
      0.475000          0.107865E-03
      0.480000          0.106275E-03
      0.485000          0.104850E-03
      0.490000          0.103559E-03
      0.495000          0.102365E-03
      0.500000          0.101231E-03
