 I_abs(s)[cm^-1]/c[mg/ml]
       0.00000          0.148315E-01
      0.500000E-02      0.147667E-01
      0.100000E-01      0.145742E-01
      0.150000E-01      0.142590E-01
      0.200000E-01      0.138297E-01
      0.250000E-01      0.132977E-01
      0.300000E-01      0.126765E-01
      0.350000E-01      0.119817E-01
      0.400000E-01      0.112301E-01
      0.450000E-01      0.104386E-01
      0.500000E-01      0.962449E-02
      0.550000E-01      0.880399E-02
      0.600000E-01      0.799219E-02
      0.650000E-01      0.720245E-02
      0.700000E-01      0.644613E-02
      0.750000E-01      0.573235E-02
      0.800000E-01      0.506793E-02
      0.850000E-01      0.445740E-02
      0.900000E-01      0.390315E-02
      0.950000E-01      0.340562E-02
      0.100000          0.296358E-02
      0.105000          0.257448E-02
      0.110000          0.223471E-02
      0.115000          0.194001E-02
      0.120000          0.168574E-02
      0.125000          0.146712E-02
      0.130000          0.127952E-02
      0.135000          0.111860E-02
      0.140000          0.980436E-03
      0.145000          0.861565E-03
      0.150000          0.759046E-03
      0.155000          0.670424E-03
      0.160000          0.593693E-03
      0.165000          0.527233E-03
      0.170000          0.469745E-03
      0.175000          0.420175E-03
      0.180000          0.377652E-03
      0.185000          0.341432E-03
      0.190000          0.310853E-03
      0.195000          0.285307E-03
      0.200000          0.264224E-03
      0.205000          0.247063E-03
      0.210000          0.233311E-03
      0.215000          0.222494E-03
      0.220000          0.214175E-03
      0.225000          0.207967E-03
      0.230000          0.203533E-03
      0.235000          0.200585E-03
      0.240000          0.198878E-03
      0.245000          0.198207E-03
      0.250000          0.198392E-03
      0.255000          0.199269E-03
      0.260000          0.200679E-03
      0.265000          0.202460E-03
      0.270000          0.204445E-03
      0.275000          0.206455E-03
      0.280000          0.208306E-03
      0.285000          0.209814E-03
      0.290000          0.210804E-03
      0.295000          0.211120E-03
      0.300000          0.210636E-03
      0.305000          0.209266E-03
      0.310000          0.206971E-03
      0.315000          0.203762E-03
      0.320000          0.199702E-03
      0.325000          0.194901E-03
      0.330000          0.189509E-03
      0.335000          0.183702E-03
      0.340000          0.177675E-03
      0.345000          0.171622E-03
      0.350000          0.165727E-03
      0.355000          0.160149E-03
      0.360000          0.155014E-03
      0.365000          0.150407E-03
      0.370000          0.146371E-03
      0.375000          0.142905E-03
      0.380000          0.139972E-03
      0.385000          0.137505E-03
      0.390000          0.135415E-03
      0.395000          0.133602E-03
      0.400000          0.131966E-03
      0.405000          0.130418E-03
      0.410000          0.128885E-03
      0.415000          0.127318E-03
      0.420000          0.125693E-03
      0.425000          0.124011E-03
      0.430000          0.122298E-03
      0.435000          0.120596E-03
      0.440000          0.118960E-03
      0.445000          0.117449E-03
      0.450000          0.116117E-03
      0.455000          0.115009E-03
      0.460000          0.114154E-03
      0.465000          0.113561E-03
      0.470000          0.113217E-03
      0.475000          0.113089E-03
      0.480000          0.113125E-03
      0.485000          0.113260E-03
      0.490000          0.113419E-03
      0.495000          0.113527E-03
      0.500000          0.113513E-03
