 I_abs(s)[cm^-1]/c[mg/ml]
       0.00000          0.143707E-01
      0.500000E-02      0.143018E-01
      0.100000E-01      0.140970E-01
      0.150000E-01      0.137619E-01
      0.200000E-01      0.133057E-01
      0.250000E-01      0.127404E-01
      0.300000E-01      0.120809E-01
      0.350000E-01      0.113441E-01
      0.400000E-01      0.105482E-01
      0.450000E-01      0.971206E-02
      0.500000E-01      0.885456E-02
      0.550000E-01      0.799394E-02
      0.600000E-01      0.714719E-02
      0.650000E-01      0.632951E-02
      0.700000E-01      0.555392E-02
      0.750000E-01      0.483098E-02
      0.800000E-01      0.416865E-02
      0.850000E-01      0.357220E-02
      0.900000E-01      0.304434E-02
      0.950000E-01      0.258535E-02
      0.100000          0.219340E-02
      0.105000          0.186484E-02
      0.110000          0.159460E-02
      0.115000          0.137657E-02
      0.120000          0.120399E-02
      0.125000          0.106985E-02
      0.130000          0.967180E-03
      0.135000          0.889378E-03
      0.140000          0.830404E-03
      0.145000          0.784960E-03
      0.150000          0.748580E-03
      0.155000          0.717679E-03
      0.160000          0.689537E-03
      0.165000          0.662243E-03
      0.170000          0.634609E-03
      0.175000          0.606056E-03
      0.180000          0.576486E-03
      0.185000          0.546158E-03
      0.190000          0.515564E-03
      0.195000          0.485317E-03
      0.200000          0.456060E-03
      0.205000          0.428388E-03
      0.210000          0.402798E-03
      0.215000          0.379653E-03
      0.220000          0.359170E-03
      0.225000          0.341419E-03
      0.230000          0.326333E-03
      0.235000          0.313735E-03
      0.240000          0.303361E-03
      0.245000          0.294891E-03
      0.250000          0.287973E-03
      0.255000          0.282253E-03
      0.260000          0.277392E-03
      0.265000          0.273085E-03
      0.270000          0.269068E-03
      0.275000          0.265127E-03
      0.280000          0.261100E-03
      0.285000          0.256870E-03
      0.290000          0.252364E-03
      0.295000          0.247548E-03
      0.300000          0.242416E-03
      0.305000          0.236986E-03
      0.310000          0.231292E-03
      0.315000          0.225378E-03
      0.320000          0.219294E-03
      0.325000          0.213092E-03
      0.330000          0.206824E-03
      0.335000          0.200540E-03
      0.340000          0.194285E-03
      0.345000          0.188104E-03
      0.350000          0.182034E-03
      0.355000          0.176113E-03
      0.360000          0.170372E-03
      0.365000          0.164841E-03
      0.370000          0.159545E-03
      0.375000          0.154506E-03
      0.380000          0.149744E-03
      0.385000          0.145273E-03
      0.390000          0.141104E-03
      0.395000          0.137245E-03
      0.400000          0.133697E-03
      0.405000          0.130461E-03
      0.410000          0.127529E-03
      0.415000          0.124890E-03
      0.420000          0.122531E-03
      0.425000          0.120432E-03
      0.430000          0.118570E-03
      0.435000          0.116918E-03
      0.440000          0.115448E-03
      0.445000          0.114127E-03
      0.450000          0.112922E-03
      0.455000          0.111798E-03
      0.460000          0.110723E-03
      0.465000          0.109664E-03
      0.470000          0.108592E-03
      0.475000          0.107481E-03
      0.480000          0.106310E-03
      0.485000          0.105065E-03
      0.490000          0.103736E-03
      0.495000          0.102323E-03
      0.500000          0.100831E-03
