 I_abs(s)[cm^-1]/c[mg/ml]
       0.00000          0.143943E-01
      0.500000E-02      0.143197E-01
      0.100000E-01      0.140982E-01
      0.150000E-01      0.137373E-01
      0.200000E-01      0.132485E-01
      0.250000E-01      0.126475E-01
      0.300000E-01      0.119527E-01
      0.350000E-01      0.111846E-01
      0.400000E-01      0.103647E-01
      0.450000E-01      0.951443E-02
      0.500000E-01      0.865446E-02
      0.550000E-01      0.780358E-02
      0.600000E-01      0.697825E-02
      0.650000E-01      0.619210E-02
      0.700000E-01      0.545569E-02
      0.750000E-01      0.477651E-02
      0.800000E-01      0.415905E-02
      0.850000E-01      0.360513E-02
      0.900000E-01      0.311425E-02
      0.950000E-01      0.268406E-02
      0.100000          0.231084E-02
      0.105000          0.198993E-02
      0.110000          0.171615E-02
      0.115000          0.148417E-02
      0.120000          0.128877E-02
      0.125000          0.112502E-02
      0.130000          0.988461E-03
      0.135000          0.875083E-03
      0.140000          0.781395E-03
      0.145000          0.704373E-03
      0.150000          0.641421E-03
      0.155000          0.590309E-03
      0.160000          0.549126E-03
      0.165000          0.516224E-03
      0.170000          0.490183E-03
      0.175000          0.469779E-03
      0.180000          0.453962E-03
      0.185000          0.441838E-03
      0.190000          0.432652E-03
      0.195000          0.425770E-03
      0.200000          0.420665E-03
      0.205000          0.416892E-03
      0.210000          0.414070E-03
      0.215000          0.411862E-03
      0.220000          0.409958E-03
      0.225000          0.408064E-03
      0.230000          0.405895E-03
      0.235000          0.403178E-03
      0.240000          0.399659E-03
      0.245000          0.395112E-03
      0.250000          0.389358E-03
      0.255000          0.382276E-03
      0.260000          0.373817E-03
      0.265000          0.364010E-03
      0.270000          0.352964E-03
      0.275000          0.340862E-03
      0.280000          0.327945E-03
      0.285000          0.314502E-03
      0.290000          0.300839E-03
      0.295000          0.287265E-03
      0.300000          0.274065E-03
      0.305000          0.261481E-03
      0.310000          0.249704E-03
      0.315000          0.238860E-03
      0.320000          0.229012E-03
      0.325000          0.220162E-03
      0.330000          0.212263E-03
      0.335000          0.205227E-03
      0.340000          0.198940E-03
      0.345000          0.193277E-03
      0.350000          0.188113E-03
      0.355000          0.183330E-03
      0.360000          0.178828E-03
      0.365000          0.174524E-03
      0.370000          0.170355E-03
      0.375000          0.166277E-03
      0.380000          0.162257E-03
      0.385000          0.158276E-03
      0.390000          0.154321E-03
      0.395000          0.150385E-03
      0.400000          0.146462E-03
      0.405000          0.142552E-03
      0.410000          0.138658E-03
      0.415000          0.134788E-03
      0.420000          0.130957E-03
      0.425000          0.127187E-03
      0.430000          0.123509E-03
      0.435000          0.119957E-03
      0.440000          0.116574E-03
      0.445000          0.113400E-03
      0.450000          0.110475E-03
      0.455000          0.107830E-03
      0.460000          0.105487E-03
      0.465000          0.103454E-03
      0.470000          0.101722E-03
      0.475000          0.100269E-03
      0.480000          0.990566E-04
      0.485000          0.980345E-04
      0.490000          0.971448E-04
      0.495000          0.963266E-04
      0.500000          0.955206E-04
