 I_abs(s)[cm^-1]/c[mg/ml]
       0.00000          0.147515E-01
      0.500000E-02      0.146904E-01
      0.100000E-01      0.145085E-01
      0.150000E-01      0.142103E-01
      0.200000E-01      0.138030E-01
      0.250000E-01      0.132965E-01
      0.300000E-01      0.127026E-01
      0.350000E-01      0.120349E-01
      0.400000E-01      0.113081E-01
      0.450000E-01      0.105376E-01
      0.500000E-01      0.973889E-02
      0.550000E-01      0.892710E-02
      0.600000E-01      0.811648E-02
      0.650000E-01      0.732007E-02
      0.700000E-01      0.654939E-02
      0.750000E-01      0.581418E-02
      0.800000E-01      0.512230E-02
      0.850000E-01      0.447966E-02
      0.900000E-01      0.389028E-02
      0.950000E-01      0.335639E-02
      0.100000          0.287858E-02
      0.105000          0.245604E-02
      0.110000          0.208678E-02
      0.115000          0.176787E-02
      0.120000          0.149571E-02
      0.125000          0.126625E-02
      0.130000          0.107518E-02
      0.135000          0.918132E-03
      0.140000          0.790834E-03
      0.145000          0.689186E-03
      0.150000          0.609361E-03
      0.155000          0.547845E-03
      0.160000          0.501460E-03
      0.165000          0.467368E-03
      0.170000          0.443058E-03
      0.175000          0.426330E-03
      0.180000          0.415267E-03
      0.185000          0.408215E-03
      0.190000          0.403760E-03
      0.195000          0.400709E-03
      0.200000          0.398075E-03
      0.205000          0.395067E-03
      0.210000          0.391078E-03
      0.215000          0.385678E-03
      0.220000          0.378602E-03
      0.225000          0.369740E-03
      0.230000          0.359121E-03
      0.235000          0.346896E-03
      0.240000          0.333314E-03
      0.245000          0.318698E-03
      0.250000          0.303423E-03
      0.255000          0.287884E-03
      0.260000          0.272473E-03
      0.265000          0.257555E-03
      0.270000          0.243453E-03
      0.275000          0.230423E-03
      0.280000          0.218657E-03
      0.285000          0.208268E-03
      0.290000          0.199297E-03
      0.295000          0.191717E-03
      0.300000          0.185443E-03
      0.305000          0.180342E-03
      0.310000          0.176252E-03
      0.315000          0.172989E-03
      0.320000          0.170365E-03
      0.325000          0.168199E-03
      0.330000          0.166327E-03
      0.335000          0.164607E-03
      0.340000          0.162925E-03
      0.345000          0.161195E-03
      0.350000          0.159362E-03
      0.355000          0.157392E-03
      0.360000          0.155274E-03
      0.365000          0.153015E-03
      0.370000          0.150632E-03
      0.375000          0.148147E-03
      0.380000          0.145588E-03
      0.385000          0.142981E-03
      0.390000          0.140348E-03
      0.395000          0.137710E-03
      0.400000          0.135082E-03
      0.405000          0.132476E-03
      0.410000          0.129901E-03
      0.415000          0.127366E-03
      0.420000          0.124877E-03
      0.425000          0.122441E-03
      0.430000          0.120068E-03
      0.435000          0.117765E-03
      0.440000          0.115543E-03
      0.445000          0.113413E-03
      0.450000          0.111384E-03
      0.455000          0.109464E-03
      0.460000          0.107661E-03
      0.465000          0.105976E-03
      0.470000          0.104409E-03
      0.475000          0.102954E-03
      0.480000          0.101603E-03
      0.485000          0.100345E-03
      0.490000          0.991625E-04
      0.495000          0.980407E-04
      0.500000          0.969619E-04
