 I_abs(s)[cm^-1]/c[mg/ml]
       0.00000          0.141899E-01
      0.500000E-02      0.141327E-01
      0.100000E-01      0.139623E-01
      0.150000E-01      0.136828E-01
      0.200000E-01      0.133007E-01
      0.250000E-01      0.128249E-01
      0.300000E-01      0.122661E-01
      0.350000E-01      0.116366E-01
      0.400000E-01      0.109500E-01
      0.450000E-01      0.102204E-01
      0.500000E-01      0.946221E-02
      0.550000E-01      0.868964E-02
      0.600000E-01      0.791625E-02
      0.650000E-01      0.715458E-02
      0.700000E-01      0.641588E-02
      0.750000E-01      0.570988E-02
      0.800000E-01      0.504456E-02
      0.850000E-01      0.442616E-02
      0.900000E-01      0.385908E-02
      0.950000E-01      0.334602E-02
      0.100000          0.288800E-02
      0.105000          0.248459E-02
      0.110000          0.213409E-02
      0.115000          0.183373E-02
      0.120000          0.157992E-02
      0.125000          0.136846E-02
      0.130000          0.119480E-02
      0.135000          0.105419E-02
      0.140000          0.941917E-03
      0.145000          0.853413E-03
      0.150000          0.784392E-03
      0.155000          0.730942E-03
      0.160000          0.689586E-03
      0.165000          0.657312E-03
      0.170000          0.631586E-03
      0.175000          0.610340E-03
      0.180000          0.591946E-03
      0.185000          0.575177E-03
      0.190000          0.559157E-03
      0.195000          0.543313E-03
      0.200000          0.527318E-03
      0.205000          0.511038E-03
      0.210000          0.494480E-03
      0.215000          0.477751E-03
      0.220000          0.461012E-03
      0.225000          0.444448E-03
      0.230000          0.428239E-03
      0.235000          0.412539E-03
      0.240000          0.397465E-03
      0.245000          0.383085E-03
      0.250000          0.369422E-03
      0.255000          0.356449E-03
      0.260000          0.344103E-03
      0.265000          0.332287E-03
      0.270000          0.320888E-03
      0.275000          0.309783E-03
      0.280000          0.298853E-03
      0.285000          0.287996E-03
      0.290000          0.277130E-03
      0.295000          0.266204E-03
      0.300000          0.255201E-03
      0.305000          0.244137E-03
      0.310000          0.233063E-03
      0.315000          0.222056E-03
      0.320000          0.211217E-03
      0.325000          0.200660E-03
      0.330000          0.190509E-03
      0.335000          0.180882E-03
      0.340000          0.171890E-03
      0.345000          0.163626E-03
      0.350000          0.156160E-03
      0.355000          0.149538E-03
      0.360000          0.143778E-03
      0.365000          0.138868E-03
      0.370000          0.134772E-03
      0.375000          0.131432E-03
      0.380000          0.128770E-03
      0.385000          0.126694E-03
      0.390000          0.125106E-03
      0.395000          0.123904E-03
      0.400000          0.122986E-03
      0.405000          0.122258E-03
      0.410000          0.121634E-03
      0.415000          0.121039E-03
      0.420000          0.120411E-03
      0.425000          0.119699E-03
      0.430000          0.118869E-03
      0.435000          0.117896E-03
      0.440000          0.116765E-03
      0.445000          0.115474E-03
      0.450000          0.114025E-03
      0.455000          0.112430E-03
      0.460000          0.110702E-03
      0.465000          0.108861E-03
      0.470000          0.106927E-03
      0.475000          0.104924E-03
      0.480000          0.102875E-03
      0.485000          0.100803E-03
      0.490000          0.987302E-04
      0.495000          0.966788E-04
      0.500000          0.946681E-04
