 I_abs(s)[cm^-1]/c[mg/ml]
       0.00000          0.146240E-01
      0.500000E-02      0.145411E-01
      0.100000E-01      0.142949E-01
      0.150000E-01      0.138936E-01
      0.200000E-01      0.133502E-01
      0.250000E-01      0.126817E-01
      0.300000E-01      0.119090E-01
      0.350000E-01      0.110552E-01
      0.400000E-01      0.101448E-01
      0.450000E-01      0.920270E-02
      0.500000E-01      0.825301E-02
      0.550000E-01      0.731816E-02
      0.600000E-01      0.641803E-02
      0.650000E-01      0.556940E-02
      0.700000E-01      0.478544E-02
      0.750000E-01      0.407557E-02
      0.800000E-01      0.344544E-02
      0.850000E-01      0.289708E-02
      0.900000E-01      0.242933E-02
      0.950000E-01      0.203828E-02
      0.100000          0.171784E-02
      0.105000          0.146039E-02
      0.110000          0.125734E-02
      0.115000          0.109975E-02
      0.120000          0.978854E-03
      0.125000          0.886440E-03
      0.130000          0.815201E-03
      0.135000          0.758942E-03
      0.140000          0.712684E-03
      0.145000          0.672675E-03
      0.150000          0.636318E-03
      0.155000          0.602036E-03
      0.160000          0.569095E-03
      0.165000          0.537404E-03
      0.170000          0.507306E-03
      0.175000          0.479389E-03
      0.180000          0.454310E-03
      0.185000          0.432661E-03
      0.190000          0.414867E-03
      0.195000          0.401120E-03
      0.200000          0.391357E-03
      0.205000          0.385262E-03
      0.210000          0.382295E-03
      0.215000          0.381747E-03
      0.220000          0.382796E-03
      0.225000          0.384575E-03
      0.230000          0.386233E-03
      0.235000          0.386998E-03
      0.240000          0.386217E-03
      0.245000          0.383395E-03
      0.250000          0.378216E-03
      0.255000          0.370546E-03
      0.260000          0.360433E-03
      0.265000          0.348083E-03
      0.270000          0.333840E-03
      0.275000          0.318152E-03
      0.280000          0.301536E-03
      0.285000          0.284539E-03
      0.290000          0.267705E-03
      0.295000          0.251540E-03
      0.300000          0.236490E-03
      0.305000          0.222913E-03
      0.310000          0.211069E-03
      0.315000          0.201111E-03
      0.320000          0.193086E-03
      0.325000          0.186942E-03
      0.330000          0.182537E-03
      0.335000          0.179658E-03
      0.340000          0.178038E-03
      0.345000          0.177377E-03
      0.350000          0.177363E-03
      0.355000          0.177693E-03
      0.360000          0.178086E-03
      0.365000          0.178302E-03
      0.370000          0.178146E-03
      0.375000          0.177480E-03
      0.380000          0.176222E-03
      0.385000          0.174343E-03
      0.390000          0.171866E-03
      0.395000          0.168851E-03
      0.400000          0.165393E-03
      0.405000          0.161607E-03
      0.410000          0.157619E-03
      0.415000          0.153554E-03
      0.420000          0.149530E-03
      0.425000          0.145649E-03
      0.430000          0.141992E-03
      0.435000          0.138617E-03
      0.440000          0.135556E-03
      0.445000          0.132818E-03
      0.450000          0.130388E-03
      0.455000          0.128235E-03
      0.460000          0.126311E-03
      0.465000          0.124560E-03
      0.470000          0.122921E-03
      0.475000          0.121331E-03
      0.480000          0.119730E-03
      0.485000          0.118065E-03
      0.490000          0.116291E-03
      0.495000          0.114374E-03
      0.500000          0.112291E-03
