 I_abs(s)[cm^-1]/c[mg/ml]
       0.00000          0.145288E-01
      0.500000E-02      0.144676E-01
      0.100000E-01      0.142855E-01
      0.150000E-01      0.139870E-01
      0.200000E-01      0.135793E-01
      0.250000E-01      0.130719E-01
      0.300000E-01      0.124768E-01
      0.350000E-01      0.118075E-01
      0.400000E-01      0.110787E-01
      0.450000E-01      0.103060E-01
      0.500000E-01      0.950509E-02
      0.550000E-01      0.869139E-02
      0.600000E-01      0.787962E-02
      0.650000E-01      0.708334E-02
      0.700000E-01      0.631461E-02
      0.750000E-01      0.558375E-02
      0.800000E-01      0.489917E-02
      0.850000E-01      0.426725E-02
      0.900000E-01      0.369234E-02
      0.950000E-01      0.317687E-02
      0.100000          0.272145E-02
      0.105000          0.232507E-02
      0.110000          0.198531E-02
      0.115000          0.169867E-02
      0.120000          0.146073E-02
      0.125000          0.126654E-02
      0.130000          0.111075E-02
      0.135000          0.987965E-03
      0.140000          0.892844E-03
      0.145000          0.820328E-03
      0.150000          0.765750E-03
      0.155000          0.724925E-03
      0.160000          0.694211E-03
      0.165000          0.670528E-03
      0.170000          0.651359E-03
      0.175000          0.634716E-03
      0.180000          0.619103E-03
      0.185000          0.603455E-03
      0.190000          0.587077E-03
      0.195000          0.569581E-03
      0.200000          0.550819E-03
      0.205000          0.530828E-03
      0.210000          0.509772E-03
      0.215000          0.487901E-03
      0.220000          0.465512E-03
      0.225000          0.442918E-03
      0.230000          0.420424E-03
      0.235000          0.398314E-03
      0.240000          0.376839E-03
      0.245000          0.356207E-03
      0.250000          0.336586E-03
      0.255000          0.318101E-03
      0.260000          0.300835E-03
      0.265000          0.284834E-03
      0.270000          0.270109E-03
      0.275000          0.256644E-03
      0.280000          0.244398E-03
      0.285000          0.233310E-03
      0.290000          0.223305E-03
      0.295000          0.214297E-03
      0.300000          0.206197E-03
      0.305000          0.198911E-03
      0.310000          0.192349E-03
      0.315000          0.186423E-03
      0.320000          0.181053E-03
      0.325000          0.176165E-03
      0.330000          0.171695E-03
      0.335000          0.167586E-03
      0.340000          0.163790E-03
      0.345000          0.160267E-03
      0.350000          0.156984E-03
      0.355000          0.153911E-03
      0.360000          0.151024E-03
      0.365000          0.148302E-03
      0.370000          0.145726E-03
      0.375000          0.143279E-03
      0.380000          0.140942E-03
      0.385000          0.138700E-03
      0.390000          0.136537E-03
      0.395000          0.134439E-03
      0.400000          0.132392E-03
      0.405000          0.130385E-03
      0.410000          0.128409E-03
      0.415000          0.126458E-03
      0.420000          0.124526E-03
      0.425000          0.122614E-03
      0.430000          0.120723E-03
      0.435000          0.118857E-03
      0.440000          0.117023E-03
      0.445000          0.115228E-03
      0.450000          0.113482E-03
      0.455000          0.111793E-03
      0.460000          0.110170E-03
      0.465000          0.108623E-03
      0.470000          0.107157E-03
      0.475000          0.105779E-03
      0.480000          0.104492E-03
      0.485000          0.103297E-03
      0.490000          0.102195E-03
      0.495000          0.101182E-03
      0.500000          0.100253E-03
