 I_abs(s)[cm^-1]/c[mg/ml]
       0.00000          0.150244E-01
      0.500000E-02      0.149737E-01
      0.100000E-01      0.148228E-01
      0.150000E-01      0.145744E-01
      0.200000E-01      0.142333E-01
      0.250000E-01      0.138059E-01
      0.300000E-01      0.133001E-01
      0.350000E-01      0.127252E-01
      0.400000E-01      0.120912E-01
      0.450000E-01      0.114092E-01
      0.500000E-01      0.106904E-01
      0.550000E-01      0.994634E-02
      0.600000E-01      0.918835E-02
      0.650000E-01      0.842733E-02
      0.700000E-01      0.767351E-02
      0.750000E-01      0.693628E-02
      0.800000E-01      0.622396E-02
      0.850000E-01      0.554373E-02
      0.900000E-01      0.490152E-02
      0.950000E-01      0.430198E-02
      0.100000          0.374848E-02
      0.105000          0.324315E-02
      0.110000          0.278696E-02
      0.115000          0.237979E-02
      0.120000          0.202058E-02
      0.125000          0.170749E-02
      0.130000          0.143795E-02
      0.135000          0.120893E-02
      0.140000          0.101698E-02
      0.145000          0.858414E-03
      0.150000          0.729450E-03
      0.155000          0.626287E-03
      0.160000          0.545220E-03
      0.165000          0.482721E-03
      0.170000          0.435497E-03
      0.175000          0.400540E-03
      0.180000          0.375155E-03
      0.185000          0.356981E-03
      0.190000          0.343994E-03
      0.195000          0.334500E-03
      0.200000          0.327120E-03
      0.205000          0.320770E-03
      0.210000          0.314633E-03
      0.215000          0.308129E-03
      0.220000          0.300885E-03
      0.225000          0.292701E-03
      0.230000          0.283518E-03
      0.235000          0.273390E-03
      0.240000          0.262456E-03
      0.245000          0.250911E-03
      0.250000          0.238986E-03
      0.255000          0.226930E-03
      0.260000          0.214992E-03
      0.265000          0.203405E-03
      0.270000          0.192384E-03
      0.275000          0.182109E-03
      0.280000          0.172730E-03
      0.285000          0.164355E-03
      0.290000          0.157060E-03
      0.295000          0.150881E-03
      0.300000          0.145823E-03
      0.305000          0.141861E-03
      0.310000          0.138946E-03
      0.315000          0.137005E-03
      0.320000          0.135955E-03
      0.325000          0.135697E-03
      0.330000          0.136129E-03
      0.335000          0.137146E-03
      0.340000          0.138641E-03
      0.345000          0.140515E-03
      0.350000          0.142672E-03
      0.355000          0.145024E-03
      0.360000          0.147490E-03
      0.365000          0.150000E-03
      0.370000          0.152490E-03
      0.375000          0.154905E-03
      0.380000          0.157198E-03
      0.385000          0.159329E-03
      0.390000          0.161261E-03
      0.395000          0.162967E-03
      0.400000          0.164419E-03
      0.405000          0.165596E-03
      0.410000          0.166479E-03
      0.415000          0.167053E-03
      0.420000          0.167305E-03
      0.425000          0.167223E-03
      0.430000          0.166800E-03
      0.435000          0.166031E-03
      0.440000          0.164916E-03
      0.445000          0.163456E-03
      0.450000          0.161657E-03
      0.455000          0.159530E-03
      0.460000          0.157089E-03
      0.465000          0.154354E-03
      0.470000          0.151348E-03
      0.475000          0.148099E-03
      0.480000          0.144637E-03
      0.485000          0.140996E-03
      0.490000          0.137214E-03
      0.495000          0.133328E-03
      0.500000          0.129377E-03
