 I_abs(s)[cm^-1]/c[mg/ml]
       0.00000          0.149278E-01
      0.500000E-02      0.148646E-01
      0.100000E-01      0.146767E-01
      0.150000E-01      0.143690E-01
      0.200000E-01      0.139496E-01
      0.250000E-01      0.134291E-01
      0.300000E-01      0.128206E-01
      0.350000E-01      0.121388E-01
      0.400000E-01      0.113994E-01
      0.450000E-01      0.106190E-01
      0.500000E-01      0.981378E-02
      0.550000E-01      0.899941E-02
      0.600000E-01      0.819046E-02
      0.650000E-01      0.739992E-02
      0.700000E-01      0.663899E-02
      0.750000E-01      0.591680E-02
      0.800000E-01      0.524037E-02
      0.850000E-01      0.461464E-02
      0.900000E-01      0.404254E-02
      0.950000E-01      0.352517E-02
      0.100000          0.306209E-02
      0.105000          0.265153E-02
      0.110000          0.229071E-02
      0.115000          0.197614E-02
      0.120000          0.170385E-02
      0.125000          0.146965E-02
      0.130000          0.126933E-02
      0.135000          0.109881E-02
      0.140000          0.954258E-03
      0.145000          0.832148E-03
      0.150000          0.729318E-03
      0.155000          0.642963E-03
      0.160000          0.570626E-03
      0.165000          0.510167E-03
      0.170000          0.459734E-03
      0.175000          0.417720E-03
      0.180000          0.382733E-03
      0.185000          0.353566E-03
      0.190000          0.329177E-03
      0.195000          0.308668E-03
      0.200000          0.291282E-03
      0.205000          0.276387E-03
      0.210000          0.263473E-03
      0.215000          0.252146E-03
      0.220000          0.242118E-03
      0.225000          0.233193E-03
      0.230000          0.225255E-03
      0.235000          0.218249E-03
      0.240000          0.212160E-03
      0.245000          0.206995E-03
      0.250000          0.202766E-03
      0.255000          0.199471E-03
      0.260000          0.197082E-03
      0.265000          0.195541E-03
      0.270000          0.194755E-03
      0.275000          0.194599E-03
      0.280000          0.194923E-03
      0.285000          0.195560E-03
      0.290000          0.196342E-03
      0.295000          0.197106E-03
      0.300000          0.197710E-03
      0.305000          0.198039E-03
      0.310000          0.198012E-03
      0.315000          0.197585E-03
      0.320000          0.196748E-03
      0.325000          0.195526E-03
      0.330000          0.193964E-03
      0.335000          0.192127E-03
      0.340000          0.190084E-03
      0.345000          0.187903E-03
      0.350000          0.185642E-03
      0.355000          0.183345E-03
      0.360000          0.181035E-03
      0.365000          0.178717E-03
      0.370000          0.176378E-03
      0.375000          0.173988E-03
      0.380000          0.171511E-03
      0.385000          0.168907E-03
      0.390000          0.166141E-03
      0.395000          0.163185E-03
      0.400000          0.160027E-03
      0.405000          0.156669E-03
      0.410000          0.153132E-03
      0.415000          0.149455E-03
      0.420000          0.145689E-03
      0.425000          0.141896E-03
      0.430000          0.138143E-03
      0.435000          0.134496E-03
      0.440000          0.131014E-03
      0.445000          0.127749E-03
      0.450000          0.124736E-03
      0.455000          0.121995E-03
      0.460000          0.119526E-03
      0.465000          0.117317E-03
      0.470000          0.115339E-03
      0.475000          0.113551E-03
      0.480000          0.111908E-03
      0.485000          0.110360E-03
      0.490000          0.108858E-03
      0.495000          0.107362E-03
      0.500000          0.105836E-03
