 I_abs(s)[cm^-1]/c[mg/ml]
       0.00000          0.141273E-01
      0.500000E-02      0.140501E-01
      0.100000E-01      0.138211E-01
      0.150000E-01      0.134479E-01
      0.200000E-01      0.129425E-01
      0.250000E-01      0.123212E-01
      0.300000E-01      0.116033E-01
      0.350000E-01      0.108104E-01
      0.400000E-01      0.996527E-02
      0.450000E-01      0.909096E-02
      0.500000E-01      0.820967E-02
      0.550000E-01      0.734189E-02
      0.600000E-01      0.650568E-02
      0.650000E-01      0.571610E-02
      0.700000E-01      0.498483E-02
      0.750000E-01      0.432002E-02
      0.800000E-01      0.372638E-02
      0.850000E-01      0.320533E-02
      0.900000E-01      0.275546E-02
      0.950000E-01      0.237299E-02
      0.100000          0.205230E-02
      0.105000          0.178655E-02
      0.110000          0.156827E-02
      0.115000          0.138981E-02
      0.120000          0.124386E-02
      0.125000          0.112374E-02
      0.130000          0.102368E-02
      0.135000          0.938931E-03
      0.140000          0.865812E-03
      0.145000          0.801656E-03
      0.150000          0.744691E-03
      0.155000          0.693881E-03
      0.160000          0.648734E-03
      0.165000          0.609116E-03
      0.170000          0.575062E-03
      0.175000          0.546633E-03
      0.180000          0.523789E-03
      0.185000          0.506316E-03
      0.190000          0.493788E-03
      0.195000          0.485563E-03
      0.200000          0.480816E-03
      0.205000          0.478585E-03
      0.210000          0.477845E-03
      0.215000          0.477567E-03
      0.220000          0.476796E-03
      0.225000          0.474700E-03
      0.230000          0.470621E-03
      0.235000          0.464097E-03
      0.240000          0.454879E-03
      0.245000          0.442921E-03
      0.250000          0.428361E-03
      0.255000          0.411498E-03
      0.260000          0.392747E-03
      0.265000          0.372606E-03
      0.270000          0.351612E-03
      0.275000          0.330309E-03
      0.280000          0.309212E-03
      0.285000          0.288782E-03
      0.290000          0.269413E-03
      0.295000          0.251412E-03
      0.300000          0.235003E-03
      0.305000          0.220323E-03
      0.310000          0.207429E-03
      0.315000          0.196308E-03
      0.320000          0.186886E-03
      0.325000          0.179043E-03
      0.330000          0.172624E-03
      0.335000          0.167451E-03
      0.340000          0.163335E-03
      0.345000          0.160087E-03
      0.350000          0.157523E-03
      0.355000          0.155473E-03
      0.360000          0.153784E-03
      0.365000          0.152327E-03
      0.370000          0.150992E-03
      0.375000          0.149695E-03
      0.380000          0.148373E-03
      0.385000          0.146984E-03
      0.390000          0.145505E-03
      0.395000          0.143924E-03
      0.400000          0.142244E-03
      0.405000          0.140475E-03
      0.410000          0.138631E-03
      0.415000          0.136730E-03
      0.420000          0.134788E-03
      0.425000          0.132819E-03
      0.430000          0.130835E-03
      0.435000          0.128847E-03
      0.440000          0.126858E-03
      0.445000          0.124874E-03
      0.450000          0.122895E-03
      0.455000          0.120924E-03
      0.460000          0.118962E-03
      0.465000          0.117011E-03
      0.470000          0.115075E-03
      0.475000          0.113159E-03
      0.480000          0.111270E-03
      0.485000          0.109415E-03
      0.490000          0.107599E-03
      0.495000          0.105827E-03
      0.500000          0.104104E-03
