 I_abs(s)[cm^-1]/c[mg/ml]
       0.00000          0.147675E-01
      0.500000E-02      0.146857E-01
      0.100000E-01      0.144431E-01
      0.150000E-01      0.140480E-01
      0.200000E-01      0.135138E-01
      0.250000E-01      0.128581E-01
      0.300000E-01      0.121020E-01
      0.350000E-01      0.112686E-01
      0.400000E-01      0.103824E-01
      0.450000E-01      0.946759E-02
      0.500000E-01      0.854727E-02
      0.550000E-01      0.764246E-02
      0.600000E-01      0.677133E-02
      0.650000E-01      0.594870E-02
      0.700000E-01      0.518580E-02
      0.750000E-01      0.449018E-02
      0.800000E-01      0.386597E-02
      0.850000E-01      0.331413E-02
      0.900000E-01      0.283303E-02
      0.950000E-01      0.241893E-02
      0.100000          0.206659E-02
      0.105000          0.176987E-02
      0.110000          0.152219E-02
      0.115000          0.131695E-02
      0.120000          0.114791E-02
      0.125000          0.100936E-02
      0.130000          0.896274E-03
      0.135000          0.804328E-03
      0.140000          0.729879E-03
      0.145000          0.669889E-03
      0.150000          0.621830E-03
      0.155000          0.583571E-03
      0.160000          0.553287E-03
      0.165000          0.529383E-03
      0.170000          0.510436E-03
      0.175000          0.495170E-03
      0.180000          0.482450E-03
      0.185000          0.471286E-03
      0.190000          0.460851E-03
      0.195000          0.450497E-03
      0.200000          0.439767E-03
      0.205000          0.428391E-03
      0.210000          0.416280E-03
      0.215000          0.403499E-03
      0.220000          0.390236E-03
      0.225000          0.376760E-03
      0.230000          0.363377E-03
      0.235000          0.350395E-03
      0.240000          0.338083E-03
      0.245000          0.326650E-03
      0.250000          0.316227E-03
      0.255000          0.306864E-03
      0.260000          0.298536E-03
      0.265000          0.291152E-03
      0.270000          0.284580E-03
      0.275000          0.278661E-03
      0.280000          0.273234E-03
      0.285000          0.268154E-03
      0.290000          0.263301E-03
      0.295000          0.258590E-03
      0.300000          0.253973E-03
      0.305000          0.249439E-03
      0.310000          0.245000E-03
      0.315000          0.240687E-03
      0.320000          0.236540E-03
      0.325000          0.232593E-03
      0.330000          0.228869E-03
      0.335000          0.225374E-03
      0.340000          0.222093E-03
      0.345000          0.218988E-03
      0.350000          0.216004E-03
      0.355000          0.213072E-03
      0.360000          0.210115E-03
      0.365000          0.207055E-03
      0.370000          0.203818E-03
      0.375000          0.200343E-03
      0.380000          0.196584E-03
      0.385000          0.192515E-03
      0.390000          0.188128E-03
      0.395000          0.183437E-03
      0.400000          0.178474E-03
      0.405000          0.173283E-03
      0.410000          0.167925E-03
      0.415000          0.162463E-03
      0.420000          0.156968E-03
      0.425000          0.151510E-03
      0.430000          0.146154E-03
      0.435000          0.140963E-03
      0.440000          0.135989E-03
      0.445000          0.131279E-03
      0.450000          0.126868E-03
      0.455000          0.122785E-03
      0.460000          0.119049E-03
      0.465000          0.115673E-03
      0.470000          0.112661E-03
      0.475000          0.110011E-03
      0.480000          0.107716E-03
      0.485000          0.105761E-03
      0.490000          0.104124E-03
      0.495000          0.102779E-03
      0.500000          0.101692E-03
