 I_abs(s)[cm^-1]/c[mg/ml]
       0.00000          0.139792E-01
      0.500000E-02      0.139054E-01
      0.100000E-01      0.136863E-01
      0.150000E-01      0.133283E-01
      0.200000E-01      0.128421E-01
      0.250000E-01      0.122419E-01
      0.300000E-01      0.115447E-01
      0.350000E-01      0.107700E-01
      0.400000E-01      0.993852E-02
      0.450000E-01      0.907173E-02
      0.500000E-01      0.819077E-02
      0.550000E-01      0.731578E-02
      0.600000E-01      0.646518E-02
      0.650000E-01      0.565508E-02
      0.700000E-01      0.489882E-02
      0.750000E-01      0.420671E-02
      0.800000E-01      0.358588E-02
      0.850000E-01      0.304032E-02
      0.900000E-01      0.257101E-02
      0.950000E-01      0.217623E-02
      0.100000          0.185197E-02
      0.105000          0.159233E-02
      0.110000          0.139007E-02
      0.115000          0.123707E-02
      0.120000          0.112486E-02
      0.125000          0.104502E-02
      0.130000          0.989571E-03
      0.135000          0.951309E-03
      0.140000          0.923984E-03
      0.145000          0.902459E-03
      0.150000          0.882754E-03
      0.155000          0.862030E-03
      0.160000          0.838499E-03
      0.165000          0.811297E-03
      0.170000          0.780317E-03
      0.175000          0.746031E-03
      0.180000          0.709300E-03
      0.185000          0.671209E-03
      0.190000          0.632905E-03
      0.195000          0.595475E-03
      0.200000          0.559850E-03
      0.205000          0.526744E-03
      0.210000          0.496623E-03
      0.215000          0.469701E-03
      0.220000          0.445964E-03
      0.225000          0.425206E-03
      0.230000          0.407076E-03
      0.235000          0.391135E-03
      0.240000          0.376906E-03
      0.245000          0.363919E-03
      0.250000          0.351753E-03
      0.255000          0.340060E-03
      0.260000          0.328583E-03
      0.265000          0.317158E-03
      0.270000          0.305712E-03
      0.275000          0.294250E-03
      0.280000          0.282833E-03
      0.285000          0.271565E-03
      0.290000          0.260564E-03
      0.295000          0.249948E-03
      0.300000          0.239819E-03
      0.305000          0.230250E-03
      0.310000          0.221280E-03
      0.315000          0.212909E-03
      0.320000          0.205109E-03
      0.325000          0.197821E-03
      0.330000          0.190970E-03
      0.335000          0.184474E-03
      0.340000          0.178250E-03
      0.345000          0.172229E-03
      0.350000          0.166357E-03
      0.355000          0.160605E-03
      0.360000          0.154967E-03
      0.365000          0.149459E-03
      0.370000          0.144120E-03
      0.375000          0.139004E-03
      0.380000          0.134173E-03
      0.385000          0.129693E-03
      0.390000          0.125623E-03
      0.395000          0.122015E-03
      0.400000          0.118902E-03
      0.405000          0.116298E-03
      0.410000          0.114198E-03
      0.415000          0.112575E-03
      0.420000          0.111381E-03
      0.425000          0.110555E-03
      0.430000          0.110022E-03
      0.435000          0.109701E-03
      0.440000          0.109508E-03
      0.445000          0.109363E-03
      0.450000          0.109194E-03
      0.455000          0.108941E-03
      0.460000          0.108557E-03
      0.465000          0.108012E-03
      0.470000          0.107293E-03
      0.475000          0.106400E-03
      0.480000          0.105351E-03
      0.485000          0.104172E-03
      0.490000          0.102899E-03
      0.495000          0.101574E-03
      0.500000          0.100239E-03
