 I_abs(s)[cm^-1]/c[mg/ml]
       0.00000          0.141899E-01
      0.500000E-02      0.141152E-01
      0.100000E-01      0.138934E-01
      0.150000E-01      0.135320E-01
      0.200000E-01      0.130426E-01
      0.250000E-01      0.124408E-01
      0.300000E-01      0.117452E-01
      0.350000E-01      0.109767E-01
      0.400000E-01      0.101570E-01
      0.450000E-01      0.930843E-02
      0.500000E-01      0.845212E-02
      0.550000E-01      0.760770E-02
      0.600000E-01      0.679243E-02
      0.650000E-01      0.602064E-02
      0.700000E-01      0.530343E-02
      0.750000E-01      0.464855E-02
      0.800000E-01      0.406046E-02
      0.850000E-01      0.354054E-02
      0.900000E-01      0.308751E-02
      0.950000E-01      0.269788E-02
      0.100000          0.236648E-02
      0.105000          0.208705E-02
      0.110000          0.185272E-02
      0.115000          0.165655E-02
      0.120000          0.149187E-02
      0.125000          0.135262E-02
      0.130000          0.123355E-02
      0.135000          0.113030E-02
      0.140000          0.103945E-02
      0.145000          0.958447E-03
      0.150000          0.885467E-03
      0.155000          0.819309E-03
      0.160000          0.759206E-03
      0.165000          0.704677E-03
      0.170000          0.655389E-03
      0.175000          0.611043E-03
      0.180000          0.571302E-03
      0.185000          0.535752E-03
      0.190000          0.503890E-03
      0.195000          0.475146E-03
      0.200000          0.448917E-03
      0.205000          0.424613E-03
      0.210000          0.401705E-03
      0.215000          0.379765E-03
      0.220000          0.358496E-03
      0.225000          0.337744E-03
      0.230000          0.317498E-03
      0.235000          0.297875E-03
      0.240000          0.279088E-03
      0.245000          0.261412E-03
      0.250000          0.245144E-03
      0.255000          0.230562E-03
      0.260000          0.217892E-03
      0.265000          0.207285E-03
      0.270000          0.198795E-03
      0.275000          0.192380E-03
      0.280000          0.187901E-03
      0.285000          0.185141E-03
      0.290000          0.183820E-03
      0.295000          0.183620E-03
      0.300000          0.184211E-03
      0.305000          0.185273E-03
      0.310000          0.186513E-03
      0.315000          0.187684E-03
      0.320000          0.188591E-03
      0.325000          0.189095E-03
      0.330000          0.189112E-03
      0.335000          0.188608E-03
      0.340000          0.187590E-03
      0.345000          0.186095E-03
      0.350000          0.184184E-03
      0.355000          0.181926E-03
      0.360000          0.179397E-03
      0.365000          0.176667E-03
      0.370000          0.173804E-03
      0.375000          0.170865E-03
      0.380000          0.167899E-03
      0.385000          0.164947E-03
      0.390000          0.162040E-03
      0.395000          0.159205E-03
      0.400000          0.156463E-03
      0.405000          0.153830E-03
      0.410000          0.151317E-03
      0.415000          0.148929E-03
      0.420000          0.146666E-03
      0.425000          0.144523E-03
      0.430000          0.142486E-03
      0.435000          0.140539E-03
      0.440000          0.138659E-03
      0.445000          0.136819E-03
      0.450000          0.134993E-03
      0.455000          0.133153E-03
      0.460000          0.131277E-03
      0.465000          0.129346E-03
      0.470000          0.127349E-03
      0.475000          0.125282E-03
      0.480000          0.123150E-03
      0.485000          0.120964E-03
      0.490000          0.118740E-03
      0.495000          0.116500E-03
      0.500000          0.114266E-03
