 I_abs(s)[cm^-1]/c[mg/ml]
       0.00000          0.149439E-01
      0.500000E-02      0.148797E-01
      0.100000E-01      0.146888E-01
      0.150000E-01      0.143757E-01
      0.200000E-01      0.139475E-01
      0.250000E-01      0.134141E-01
      0.300000E-01      0.127875E-01
      0.350000E-01      0.120816E-01
      0.400000E-01      0.113117E-01
      0.450000E-01      0.104938E-01
      0.500000E-01      0.964426E-02
      0.550000E-01      0.877949E-02
      0.600000E-01      0.791514E-02
      0.650000E-01      0.706584E-02
      0.700000E-01      0.624480E-02
      0.750000E-01      0.546352E-02
      0.800000E-01      0.473155E-02
      0.850000E-01      0.405635E-02
      0.900000E-01      0.344323E-02
      0.950000E-01      0.289539E-02
      0.100000          0.241403E-02
      0.105000          0.199845E-02
      0.110000          0.164633E-02
      0.115000          0.135399E-02
      0.120000          0.111660E-02
      0.125000          0.928558E-03
      0.130000          0.783738E-03
      0.135000          0.675780E-03
      0.140000          0.598349E-03
      0.145000          0.545355E-03
      0.150000          0.511137E-03
      0.155000          0.490609E-03
      0.160000          0.479355E-03
      0.165000          0.473684E-03
      0.170000          0.470647E-03
      0.175000          0.468017E-03
      0.180000          0.464240E-03
      0.185000          0.458357E-03
      0.190000          0.449925E-03
      0.195000          0.438908E-03
      0.200000          0.425584E-03
      0.205000          0.410441E-03
      0.210000          0.394089E-03
      0.215000          0.377181E-03
      0.220000          0.360346E-03
      0.225000          0.344137E-03
      0.230000          0.329001E-03
      0.235000          0.315256E-03
      0.240000          0.303084E-03
      0.245000          0.292541E-03
      0.250000          0.283568E-03
      0.255000          0.276012E-03
      0.260000          0.269653E-03
      0.265000          0.264230E-03
      0.270000          0.259466E-03
      0.275000          0.255092E-03
      0.280000          0.250867E-03
      0.285000          0.246590E-03
      0.290000          0.242116E-03
      0.295000          0.237351E-03
      0.300000          0.232261E-03
      0.305000          0.226861E-03
      0.310000          0.221211E-03
      0.315000          0.215405E-03
      0.320000          0.209557E-03
      0.325000          0.203795E-03
      0.330000          0.198243E-03
      0.335000          0.193016E-03
      0.340000          0.188211E-03
      0.345000          0.183897E-03
      0.350000          0.180117E-03
      0.355000          0.176883E-03
      0.360000          0.174176E-03
      0.365000          0.171954E-03
      0.370000          0.170148E-03
      0.375000          0.168674E-03
      0.380000          0.167436E-03
      0.385000          0.166334E-03
      0.390000          0.165266E-03
      0.395000          0.164138E-03
      0.400000          0.162867E-03
      0.405000          0.161384E-03
      0.410000          0.159637E-03
      0.415000          0.157594E-03
      0.420000          0.155240E-03
      0.425000          0.152578E-03
      0.430000          0.149629E-03
      0.435000          0.146428E-03
      0.440000          0.143020E-03
      0.445000          0.139458E-03
      0.450000          0.135802E-03
      0.455000          0.132112E-03
      0.460000          0.128446E-03
      0.465000          0.124862E-03
      0.470000          0.121407E-03
      0.475000          0.118123E-03
      0.480000          0.115043E-03
      0.485000          0.112190E-03
      0.490000          0.109578E-03
      0.495000          0.107213E-03
      0.500000          0.105091E-03
