 I_abs(s)[cm^-1]/c[mg/ml]
       0.00000          0.144891E-01
      0.500000E-02      0.144244E-01
      0.100000E-01      0.142318E-01
      0.150000E-01      0.139164E-01
      0.200000E-01      0.134859E-01
      0.250000E-01      0.129513E-01
      0.300000E-01      0.123256E-01
      0.350000E-01      0.116238E-01
      0.400000E-01      0.108621E-01
      0.450000E-01      0.100575E-01
      0.500000E-01      0.922718E-02
      0.550000E-01      0.838797E-02
      0.600000E-01      0.755566E-02
      0.650000E-01      0.674469E-02
      0.700000E-01      0.596775E-02
      0.750000E-01      0.523549E-02
      0.800000E-01      0.455633E-02
      0.850000E-01      0.393640E-02
      0.900000E-01      0.337955E-02
      0.950000E-01      0.288745E-02
      0.100000          0.245977E-02
      0.105000          0.209446E-02
      0.110000          0.178798E-02
      0.115000          0.153567E-02
      0.120000          0.133204E-02
      0.125000          0.117110E-02
      0.130000          0.104665E-02
      0.135000          0.952562E-03
      0.140000          0.882975E-03
      0.145000          0.832488E-03
      0.150000          0.796278E-03
      0.155000          0.770186E-03
      0.160000          0.750742E-03
      0.165000          0.735164E-03
      0.170000          0.721321E-03
      0.175000          0.707667E-03
      0.180000          0.693162E-03
      0.185000          0.677189E-03
      0.190000          0.659454E-03
      0.195000          0.639910E-03
      0.200000          0.618672E-03
      0.205000          0.595956E-03
      0.210000          0.572023E-03
      0.215000          0.547147E-03
      0.220000          0.521581E-03
      0.225000          0.495557E-03
      0.230000          0.469272E-03
      0.235000          0.442896E-03
      0.240000          0.416586E-03
      0.245000          0.390485E-03
      0.250000          0.364745E-03
      0.255000          0.339524E-03
      0.260000          0.314997E-03
      0.265000          0.291356E-03
      0.270000          0.268806E-03
      0.275000          0.247557E-03
      0.280000          0.227818E-03
      0.285000          0.209781E-03
      0.290000          0.193614E-03
      0.295000          0.179447E-03
      0.300000          0.167363E-03
      0.305000          0.157389E-03
      0.310000          0.149494E-03
      0.315000          0.143590E-03
      0.320000          0.139531E-03
      0.325000          0.137122E-03
      0.330000          0.136126E-03
      0.335000          0.136279E-03
      0.340000          0.137297E-03
      0.345000          0.138895E-03
      0.350000          0.140795E-03
      0.355000          0.142739E-03
      0.360000          0.144502E-03
      0.365000          0.145894E-03
      0.370000          0.146770E-03
      0.375000          0.147030E-03
      0.380000          0.146618E-03
      0.385000          0.145526E-03
      0.390000          0.143779E-03
      0.395000          0.141439E-03
      0.400000          0.138592E-03
      0.405000          0.135344E-03
      0.410000          0.131810E-03
      0.415000          0.128111E-03
      0.420000          0.124361E-03
      0.425000          0.120670E-03
      0.430000          0.117132E-03
      0.435000          0.113826E-03
      0.440000          0.110811E-03
      0.445000          0.108130E-03
      0.450000          0.105805E-03
      0.455000          0.103842E-03
      0.460000          0.102230E-03
      0.465000          0.100946E-03
      0.470000          0.999537E-04
      0.475000          0.992114E-04
      0.480000          0.986697E-04
      0.485000          0.982768E-04
      0.490000          0.979800E-04
      0.495000          0.977276E-04
      0.500000          0.974713E-04
