 I_abs(s)[cm^-1]/c[mg/ml]
       0.00000          0.143391E-01
      0.500000E-02      0.142587E-01
      0.100000E-01      0.140203E-01
      0.150000E-01      0.136324E-01
      0.200000E-01      0.131089E-01
      0.250000E-01      0.124675E-01
      0.300000E-01      0.117294E-01
      0.350000E-01      0.109179E-01
      0.400000E-01      0.100567E-01
      0.450000E-01      0.916946E-02
      0.500000E-01      0.827812E-02
      0.550000E-01      0.740249E-02
      0.600000E-01      0.655949E-02
      0.650000E-01      0.576280E-02
      0.700000E-01      0.502277E-02
      0.750000E-01      0.434652E-02
      0.800000E-01      0.373812E-02
      0.850000E-01      0.319898E-02
      0.900000E-01      0.272824E-02
      0.950000E-01      0.232319E-02
      0.100000          0.197971E-02
      0.105000          0.169262E-02
      0.110000          0.145609E-02
      0.115000          0.126392E-02
      0.120000          0.110978E-02
      0.125000          0.987524E-03
      0.130000          0.891281E-03
      0.135000          0.815679E-03
      0.140000          0.755928E-03
      0.145000          0.707907E-03
      0.150000          0.668197E-03
      0.155000          0.634079E-03
      0.160000          0.603500E-03
      0.165000          0.575006E-03
      0.170000          0.547656E-03
      0.175000          0.520927E-03
      0.180000          0.494614E-03
      0.185000          0.468735E-03
      0.190000          0.443453E-03
      0.195000          0.419010E-03
      0.200000          0.395678E-03
      0.205000          0.373722E-03
      0.210000          0.353374E-03
      0.215000          0.334822E-03
      0.220000          0.318189E-03
      0.225000          0.303529E-03
      0.230000          0.290816E-03
      0.235000          0.279942E-03
      0.240000          0.270718E-03
      0.245000          0.262882E-03
      0.250000          0.256116E-03
      0.255000          0.250072E-03
      0.260000          0.244396E-03
      0.265000          0.238767E-03
      0.270000          0.232924E-03
      0.275000          0.226691E-03
      0.280000          0.219992E-03
      0.285000          0.212858E-03
      0.290000          0.205411E-03
      0.295000          0.197851E-03
      0.300000          0.190423E-03
      0.305000          0.183385E-03
      0.310000          0.176978E-03
      0.315000          0.171399E-03
      0.320000          0.166778E-03
      0.325000          0.163172E-03
      0.330000          0.160564E-03
      0.335000          0.158871E-03
      0.340000          0.157961E-03
      0.345000          0.157668E-03
      0.350000          0.157815E-03
      0.355000          0.158227E-03
      0.360000          0.158747E-03
      0.365000          0.159245E-03
      0.370000          0.159621E-03
      0.375000          0.159806E-03
      0.380000          0.159759E-03
      0.385000          0.159466E-03
      0.390000          0.158930E-03
      0.395000          0.158170E-03
      0.400000          0.157211E-03
      0.405000          0.156086E-03
      0.410000          0.154824E-03
      0.415000          0.153450E-03
      0.420000          0.151982E-03
      0.425000          0.150429E-03
      0.430000          0.148789E-03
      0.435000          0.147051E-03
      0.440000          0.145198E-03
      0.445000          0.143209E-03
      0.450000          0.141067E-03
      0.455000          0.138763E-03
      0.460000          0.136301E-03
      0.465000          0.133700E-03
      0.470000          0.130994E-03
      0.475000          0.128234E-03
      0.480000          0.125478E-03
      0.485000          0.122787E-03
      0.490000          0.120221E-03
      0.495000          0.117823E-03
      0.500000          0.115620E-03
