 I_abs(s)[cm^-1]/c[mg/ml]
       0.00000          0.146718E-01
      0.500000E-02      0.146186E-01
      0.100000E-01      0.144603E-01
      0.150000E-01      0.141998E-01
      0.200000E-01      0.138423E-01
      0.250000E-01      0.133947E-01
      0.300000E-01      0.128656E-01
      0.350000E-01      0.122650E-01
      0.400000E-01      0.116039E-01
      0.450000E-01      0.108942E-01
      0.500000E-01      0.101482E-01
      0.550000E-01      0.937833E-02
      0.600000E-01      0.859702E-02
      0.650000E-01      0.781609E-02
      0.700000E-01      0.704665E-02
      0.750000E-01      0.629888E-02
      0.800000E-01      0.558173E-02
      0.850000E-01      0.490288E-02
      0.900000E-01      0.426856E-02
      0.950000E-01      0.368352E-02
      0.100000          0.315105E-02
      0.105000          0.267298E-02
      0.110000          0.224978E-02
      0.115000          0.188069E-02
      0.120000          0.156384E-02
      0.125000          0.129641E-02
      0.130000          0.107485E-02
      0.135000          0.895008E-03
      0.140000          0.752363E-03
      0.145000          0.642174E-03
      0.150000          0.559652E-03
      0.155000          0.500108E-03
      0.160000          0.459076E-03
      0.165000          0.432417E-03
      0.170000          0.416398E-03
      0.175000          0.407746E-03
      0.180000          0.403675E-03
      0.185000          0.401902E-03
      0.190000          0.400630E-03
      0.195000          0.398526E-03
      0.200000          0.394678E-03
      0.205000          0.388552E-03
      0.210000          0.379927E-03
      0.215000          0.368846E-03
      0.220000          0.355552E-03
      0.225000          0.340432E-03
      0.230000          0.323966E-03
      0.235000          0.306678E-03
      0.240000          0.289101E-03
      0.245000          0.271738E-03
      0.250000          0.255042E-03
      0.255000          0.239398E-03
      0.260000          0.225109E-03
      0.265000          0.212394E-03
      0.270000          0.201391E-03
      0.275000          0.192156E-03
      0.280000          0.184673E-03
      0.285000          0.178868E-03
      0.290000          0.174614E-03
      0.295000          0.171748E-03
      0.300000          0.170079E-03
      0.305000          0.169400E-03
      0.310000          0.169500E-03
      0.315000          0.170168E-03
      0.320000          0.171207E-03
      0.325000          0.172430E-03
      0.330000          0.173672E-03
      0.335000          0.174789E-03
      0.340000          0.175662E-03
      0.345000          0.176194E-03
      0.350000          0.176311E-03
      0.355000          0.175965E-03
      0.360000          0.175126E-03
      0.365000          0.173784E-03
      0.370000          0.171948E-03
      0.375000          0.169639E-03
      0.380000          0.166894E-03
      0.385000          0.163760E-03
      0.390000          0.160292E-03
      0.395000          0.156551E-03
      0.400000          0.152605E-03
      0.405000          0.148521E-03
      0.410000          0.144371E-03
      0.415000          0.140221E-03
      0.420000          0.136139E-03
      0.425000          0.132186E-03
      0.430000          0.128420E-03
      0.435000          0.124890E-03
      0.440000          0.121639E-03
      0.445000          0.118702E-03
      0.450000          0.116105E-03
      0.455000          0.113865E-03
      0.460000          0.111991E-03
      0.465000          0.110480E-03
      0.470000          0.109323E-03
      0.475000          0.108502E-03
      0.480000          0.107991E-03
      0.485000          0.107760E-03
      0.490000          0.107770E-03
      0.495000          0.107980E-03
      0.500000          0.108346E-03
