 I_abs(s)[cm^-1]/c[mg/ml]
       0.00000          0.143549E-01
      0.500000E-02      0.142885E-01
      0.100000E-01      0.140913E-01
      0.150000E-01      0.137686E-01
      0.200000E-01      0.133294E-01
      0.250000E-01      0.127857E-01
      0.300000E-01      0.121518E-01
      0.350000E-01      0.114440E-01
      0.400000E-01      0.106799E-01
      0.450000E-01      0.987759E-02
      0.500000E-01      0.905510E-02
      0.550000E-01      0.822960E-02
      0.600000E-01      0.741695E-02
      0.650000E-01      0.663120E-02
      0.700000E-01      0.588424E-02
      0.750000E-01      0.518554E-02
      0.800000E-01      0.454208E-02
      0.850000E-01      0.395834E-02
      0.900000E-01      0.343642E-02
      0.950000E-01      0.297630E-02
      0.100000          0.257608E-02
      0.105000          0.223237E-02
      0.110000          0.194061E-02
      0.115000          0.169548E-02
      0.120000          0.149122E-02
      0.125000          0.132198E-02
      0.130000          0.118207E-02
      0.135000          0.106617E-02
      0.140000          0.969510E-03
      0.145000          0.887956E-03
      0.150000          0.818059E-03
      0.155000          0.757050E-03
      0.160000          0.702802E-03
      0.165000          0.653761E-03
      0.170000          0.608858E-03
      0.175000          0.567417E-03
      0.180000          0.529056E-03
      0.185000          0.493597E-03
      0.190000          0.460992E-03
      0.195000          0.431252E-03
      0.200000          0.404406E-03
      0.205000          0.380460E-03
      0.210000          0.359378E-03
      0.215000          0.341076E-03
      0.220000          0.325415E-03
      0.225000          0.312211E-03
      0.230000          0.301243E-03
      0.235000          0.292259E-03
      0.240000          0.284990E-03
      0.245000          0.279155E-03
      0.250000          0.274471E-03
      0.255000          0.270658E-03
      0.260000          0.267445E-03
      0.265000          0.264570E-03
      0.270000          0.261790E-03
      0.275000          0.258879E-03
      0.280000          0.255640E-03
      0.285000          0.251901E-03
      0.290000          0.247530E-03
      0.295000          0.242430E-03
      0.300000          0.236552E-03
      0.305000          0.229892E-03
      0.310000          0.222492E-03
      0.315000          0.214441E-03
      0.320000          0.205870E-03
      0.325000          0.196943E-03
      0.330000          0.187851E-03
      0.335000          0.178800E-03
      0.340000          0.170001E-03
      0.345000          0.161654E-03
      0.350000          0.153940E-03
      0.355000          0.147011E-03
      0.360000          0.140979E-03
      0.365000          0.135914E-03
      0.370000          0.131836E-03
      0.375000          0.128721E-03
      0.380000          0.126502E-03
      0.385000          0.125075E-03
      0.390000          0.124304E-03
      0.395000          0.124036E-03
      0.400000          0.124107E-03
      0.405000          0.124355E-03
      0.410000          0.124627E-03
      0.415000          0.124788E-03
      0.420000          0.124730E-03
      0.425000          0.124373E-03
      0.430000          0.123671E-03
      0.435000          0.122607E-03
      0.440000          0.121197E-03
      0.445000          0.119481E-03
      0.450000          0.117521E-03
      0.455000          0.115395E-03
      0.460000          0.113186E-03
      0.465000          0.110983E-03
      0.470000          0.108868E-03
      0.475000          0.106912E-03
      0.480000          0.105177E-03
      0.485000          0.103702E-03
      0.490000          0.102513E-03
      0.495000          0.101615E-03
      0.500000          0.100996E-03
