 I_abs(s)[cm^-1]/c[mg/ml]
       0.00000          0.148957E-01
      0.500000E-02      0.148324E-01
      0.100000E-01      0.146442E-01
      0.150000E-01      0.143357E-01
      0.200000E-01      0.139146E-01
      0.250000E-01      0.133910E-01
      0.300000E-01      0.127774E-01
      0.350000E-01      0.120880E-01
      0.400000E-01      0.113381E-01
      0.450000E-01      0.105440E-01
      0.500000E-01      0.972193E-02
      0.550000E-01      0.888770E-02
      0.600000E-01      0.805632E-02
      0.650000E-01      0.724150E-02
      0.700000E-01      0.645532E-02
      0.750000E-01      0.570796E-02
      0.800000E-01      0.500758E-02
      0.850000E-01      0.436027E-02
      0.900000E-01      0.377000E-02
      0.950000E-01      0.323885E-02
      0.100000          0.276706E-02
      0.105000          0.235335E-02
      0.110000          0.199511E-02
      0.115000          0.168874E-02
      0.120000          0.142987E-02
      0.125000          0.121368E-02
      0.130000          0.103512E-02
      0.135000          0.889142E-03
      0.140000          0.770885E-03
      0.145000          0.675800E-03
      0.150000          0.599763E-03
      0.155000          0.539139E-03
      0.160000          0.490805E-03
      0.165000          0.452152E-03
      0.170000          0.421055E-03
      0.175000          0.395836E-03
      0.180000          0.375201E-03
      0.185000          0.358185E-03
      0.190000          0.344084E-03
      0.195000          0.332397E-03
      0.200000          0.322771E-03
      0.205000          0.314950E-03
      0.210000          0.308742E-03
      0.215000          0.303980E-03
      0.220000          0.300508E-03
      0.225000          0.298162E-03
      0.230000          0.296764E-03
      0.235000          0.296118E-03
      0.240000          0.296013E-03
      0.245000          0.296230E-03
      0.250000          0.296545E-03
      0.255000          0.296739E-03
      0.260000          0.296604E-03
      0.265000          0.295955E-03
      0.270000          0.294630E-03
      0.275000          0.292503E-03
      0.280000          0.289482E-03
      0.285000          0.285515E-03
      0.290000          0.280589E-03
      0.295000          0.274729E-03
      0.300000          0.268000E-03
      0.305000          0.260497E-03
      0.310000          0.252344E-03
      0.315000          0.243685E-03
      0.320000          0.234682E-03
      0.325000          0.225502E-03
      0.330000          0.216314E-03
      0.335000          0.207281E-03
      0.340000          0.198552E-03
      0.345000          0.190257E-03
      0.350000          0.182505E-03
      0.355000          0.175377E-03
      0.360000          0.168928E-03
      0.365000          0.163183E-03
      0.370000          0.158142E-03
      0.375000          0.153777E-03
      0.380000          0.150042E-03
      0.385000          0.146872E-03
      0.390000          0.144189E-03
      0.395000          0.141909E-03
      0.400000          0.139943E-03
      0.405000          0.138205E-03
      0.410000          0.136615E-03
      0.415000          0.135101E-03
      0.420000          0.133603E-03
      0.425000          0.132076E-03
      0.430000          0.130488E-03
      0.435000          0.128820E-03
      0.440000          0.127068E-03
      0.445000          0.125238E-03
      0.450000          0.123349E-03
      0.455000          0.121423E-03
      0.460000          0.119491E-03
      0.465000          0.117585E-03
      0.470000          0.115737E-03
      0.475000          0.113979E-03
      0.480000          0.112337E-03
      0.485000          0.110833E-03
      0.490000          0.109484E-03
      0.495000          0.108299E-03
      0.500000          0.107281E-03
