 I_abs(s)[cm^-1]/c[mg/ml]
       0.00000          0.140804E-01
      0.500000E-02      0.139506E-01
      0.100000E-01      0.135694E-01
      0.150000E-01      0.129617E-01
      0.200000E-01      0.121654E-01
      0.250000E-01      0.112283E-01
      0.300000E-01      0.102024E-01
      0.350000E-01      0.913982E-02
      0.400000E-01      0.808748E-02
      0.450000E-01      0.708418E-02
      0.500000E-01      0.615822E-02
      0.550000E-01      0.532675E-02
      0.600000E-01      0.459649E-02
      0.650000E-01      0.396552E-02
      0.700000E-01      0.342570E-02
      0.750000E-01      0.296540E-02
      0.800000E-01      0.257196E-02
      0.850000E-01      0.223364E-02
      0.900000E-01      0.194085E-02
      0.950000E-01      0.168665E-02
      0.100000          0.146658E-02
      0.105000          0.127804E-02
      0.110000          0.111942E-02
      0.115000          0.989313E-03
      0.120000          0.885830E-03
      0.125000          0.806290E-03
      0.130000          0.747191E-03
      0.135000          0.704459E-03
      0.140000          0.673851E-03
      0.145000          0.651412E-03
      0.150000          0.633842E-03
      0.155000          0.618728E-03
      0.160000          0.604581E-03
      0.165000          0.590709E-03
      0.170000          0.576982E-03
      0.175000          0.563533E-03
      0.180000          0.550508E-03
      0.185000          0.537880E-03
      0.190000          0.525381E-03
      0.195000          0.512542E-03
      0.200000          0.498812E-03
      0.205000          0.483711E-03
      0.210000          0.466982E-03
      0.215000          0.448678E-03
      0.220000          0.429187E-03
      0.225000          0.409173E-03
      0.230000          0.389460E-03
      0.235000          0.370878E-03
      0.240000          0.354119E-03
      0.245000          0.339621E-03
      0.250000          0.327510E-03
      0.255000          0.317601E-03
      0.260000          0.309464E-03
      0.265000          0.302517E-03
      0.270000          0.296146E-03
      0.275000          0.289808E-03
      0.280000          0.283111E-03
      0.285000          0.275851E-03
      0.290000          0.268014E-03
      0.295000          0.259737E-03
      0.300000          0.251253E-03
      0.305000          0.242829E-03
      0.310000          0.234709E-03
      0.315000          0.227074E-03
      0.320000          0.220026E-03
      0.325000          0.213590E-03
      0.330000          0.207732E-03
      0.335000          0.202380E-03
      0.340000          0.197452E-03
      0.345000          0.192874E-03
      0.350000          0.188590E-03
      0.355000          0.184561E-03
      0.360000          0.180766E-03
      0.365000          0.177187E-03
      0.370000          0.173804E-03
      0.375000          0.170590E-03
      0.380000          0.167514E-03
      0.385000          0.164541E-03
      0.390000          0.161640E-03
      0.395000          0.158794E-03
      0.400000          0.155996E-03
      0.405000          0.153258E-03
      0.410000          0.150600E-03
      0.415000          0.148045E-03
      0.420000          0.145612E-03
      0.425000          0.143304E-03
      0.430000          0.141109E-03
      0.435000          0.138992E-03
      0.440000          0.136906E-03
      0.445000          0.134795E-03
      0.450000          0.132603E-03
      0.455000          0.130287E-03
      0.460000          0.127819E-03
      0.465000          0.125195E-03
      0.470000          0.122434E-03
      0.475000          0.119574E-03
      0.480000          0.116669E-03
      0.485000          0.113784E-03
      0.490000          0.110985E-03
      0.495000          0.108336E-03
      0.500000          0.105895E-03
