 I_abs(s)[cm^-1]/c[mg/ml]
       0.00000          0.144891E-01
      0.500000E-02      0.144231E-01
      0.100000E-01      0.142269E-01
      0.150000E-01      0.139061E-01
      0.200000E-01      0.134697E-01
      0.250000E-01      0.129296E-01
      0.300000E-01      0.123005E-01
      0.350000E-01      0.115988E-01
      0.400000E-01      0.108420E-01
      0.450000E-01      0.100484E-01
      0.500000E-01      0.923573E-02
      0.550000E-01      0.842115E-02
      0.600000E-01      0.762024E-02
      0.650000E-01      0.684675E-02
      0.700000E-01      0.611215E-02
      0.750000E-01      0.542546E-02
      0.800000E-01      0.479316E-02
      0.850000E-01      0.421921E-02
      0.900000E-01      0.370522E-02
      0.950000E-01      0.325070E-02
      0.100000          0.285339E-02
      0.105000          0.250958E-02
      0.110000          0.221454E-02
      0.115000          0.196289E-02
      0.120000          0.174893E-02
      0.125000          0.156702E-02
      0.130000          0.141175E-02
      0.135000          0.127822E-02
      0.140000          0.116215E-02
      0.145000          0.105992E-02
      0.150000          0.968632E-03
      0.155000          0.886063E-03
      0.160000          0.810590E-03
      0.165000          0.741105E-03
      0.170000          0.676909E-03
      0.175000          0.617601E-03
      0.180000          0.562974E-03
      0.185000          0.512928E-03
      0.190000          0.467398E-03
      0.195000          0.426295E-03
      0.200000          0.389482E-03
      0.205000          0.356753E-03
      0.210000          0.327838E-03
      0.215000          0.302412E-03
      0.220000          0.280119E-03
      0.225000          0.260593E-03
      0.230000          0.243483E-03
      0.235000          0.228471E-03
      0.240000          0.215289E-03
      0.245000          0.203724E-03
      0.250000          0.193626E-03
      0.255000          0.184897E-03
      0.260000          0.177485E-03
      0.265000          0.171372E-03
      0.270000          0.166555E-03
      0.275000          0.163039E-03
      0.280000          0.160814E-03
      0.285000          0.159852E-03
      0.290000          0.160095E-03
      0.295000          0.161450E-03
      0.300000          0.163793E-03
      0.305000          0.166968E-03
      0.310000          0.170791E-03
      0.315000          0.175065E-03
      0.320000          0.179580E-03
      0.325000          0.184128E-03
      0.330000          0.188511E-03
      0.335000          0.192545E-03
      0.340000          0.196073E-03
      0.345000          0.198966E-03
      0.350000          0.201124E-03
      0.355000          0.202484E-03
      0.360000          0.203012E-03
      0.365000          0.202707E-03
      0.370000          0.201594E-03
      0.375000          0.199723E-03
      0.380000          0.197162E-03
      0.385000          0.193995E-03
      0.390000          0.190314E-03
      0.395000          0.186217E-03
      0.400000          0.181803E-03
      0.405000          0.177166E-03
      0.410000          0.172396E-03
      0.415000          0.167572E-03
      0.420000          0.162763E-03
      0.425000          0.158025E-03
      0.430000          0.153403E-03
      0.435000          0.148928E-03
      0.440000          0.144619E-03
      0.445000          0.140487E-03
      0.450000          0.136531E-03
      0.455000          0.132744E-03
      0.460000          0.129114E-03
      0.465000          0.125627E-03
      0.470000          0.122266E-03
      0.475000          0.119017E-03
      0.480000          0.115865E-03
      0.485000          0.112800E-03
      0.490000          0.109817E-03
      0.495000          0.106913E-03
      0.500000          0.104088E-03
