 I_abs(s)[cm^-1]/c[mg/ml]
       0.00000          0.146081E-01
      0.500000E-02      0.145463E-01
      0.100000E-01      0.143626E-01
      0.150000E-01      0.140620E-01
      0.200000E-01      0.136528E-01
      0.250000E-01      0.131460E-01
      0.300000E-01      0.125547E-01
      0.350000E-01      0.118939E-01
      0.400000E-01      0.111796E-01
      0.450000E-01      0.104279E-01
      0.500000E-01      0.965493E-02
      0.550000E-01      0.887590E-02
      0.600000E-01      0.810468E-02
      0.650000E-01      0.735344E-02
      0.700000E-01      0.663238E-02
      0.750000E-01      0.594957E-02
      0.800000E-01      0.531092E-02
      0.850000E-01      0.472029E-02
      0.900000E-01      0.417960E-02
      0.950000E-01      0.368914E-02
      0.100000          0.324779E-02
      0.105000          0.285337E-02
      0.110000          0.250291E-02
      0.115000          0.219298E-02
      0.120000          0.191990E-02
      0.125000          0.167998E-02
      0.130000          0.146966E-02
      0.135000          0.128562E-02
      0.140000          0.112488E-02
      0.145000          0.984768E-03
      0.150000          0.862947E-03
      0.155000          0.757382E-03
      0.160000          0.666287E-03
      0.165000          0.588088E-03
      0.170000          0.521370E-03
      0.175000          0.464844E-03
      0.180000          0.417313E-03
      0.185000          0.377664E-03
      0.190000          0.344847E-03
      0.195000          0.317888E-03
      0.200000          0.295886E-03
      0.205000          0.278021E-03
      0.210000          0.263565E-03
      0.215000          0.251884E-03
      0.220000          0.242439E-03
      0.225000          0.234781E-03
      0.230000          0.228545E-03
      0.235000          0.223437E-03
      0.240000          0.219221E-03
      0.245000          0.215707E-03
      0.250000          0.212734E-03
      0.255000          0.210165E-03
      0.260000          0.207873E-03
      0.265000          0.205743E-03
      0.270000          0.203665E-03
      0.275000          0.201542E-03
      0.280000          0.199288E-03
      0.285000          0.196834E-03
      0.290000          0.194134E-03
      0.295000          0.191168E-03
      0.300000          0.187940E-03
      0.305000          0.184481E-03
      0.310000          0.180843E-03
      0.315000          0.177097E-03
      0.320000          0.173325E-03
      0.325000          0.169615E-03
      0.330000          0.166051E-03
      0.335000          0.162707E-03
      0.340000          0.159647E-03
      0.345000          0.156914E-03
      0.350000          0.154534E-03
      0.355000          0.152515E-03
      0.360000          0.150847E-03
      0.365000          0.149508E-03
      0.370000          0.148463E-03
      0.375000          0.147675E-03
      0.380000          0.147102E-03
      0.385000          0.146703E-03
      0.390000          0.146442E-03
      0.395000          0.146284E-03
      0.400000          0.146202E-03
      0.405000          0.146170E-03
      0.410000          0.146169E-03
      0.415000          0.146178E-03
      0.420000          0.146179E-03
      0.425000          0.146153E-03
      0.430000          0.146078E-03
      0.435000          0.145934E-03
      0.440000          0.145696E-03
      0.445000          0.145342E-03
      0.450000          0.144850E-03
      0.455000          0.144199E-03
      0.460000          0.143374E-03
      0.465000          0.142362E-03
      0.470000          0.141157E-03
      0.475000          0.139760E-03
      0.480000          0.138173E-03
      0.485000          0.136408E-03
      0.490000          0.134479E-03
      0.495000          0.132401E-03
      0.500000          0.130194E-03
