 I_abs(s)[cm^-1]/c[mg/ml]
       0.00000          0.147276E-01
      0.500000E-02      0.146664E-01
      0.100000E-01      0.144841E-01
      0.150000E-01      0.141850E-01
      0.200000E-01      0.137759E-01
      0.250000E-01      0.132663E-01
      0.300000E-01      0.126674E-01
      0.350000E-01      0.119924E-01
      0.400000E-01      0.112557E-01
      0.450000E-01      0.104724E-01
      0.500000E-01      0.965804E-02
      0.550000E-01      0.882797E-02
      0.600000E-01      0.799692E-02
      0.650000E-01      0.717864E-02
      0.700000E-01      0.638554E-02
      0.750000E-01      0.562840E-02
      0.800000E-01      0.491621E-02
      0.850000E-01      0.425603E-02
      0.900000E-01      0.365292E-02
      0.950000E-01      0.311003E-02
      0.100000          0.262866E-02
      0.105000          0.220841E-02
      0.110000          0.184743E-02
      0.115000          0.154261E-02
      0.120000          0.128985E-02
      0.125000          0.108432E-02
      0.130000          0.920750E-03
      0.135000          0.793613E-03
      0.140000          0.697389E-03
      0.145000          0.626736E-03
      0.150000          0.576643E-03
      0.155000          0.542547E-03
      0.160000          0.520411E-03
      0.165000          0.506766E-03
      0.170000          0.498724E-03
      0.175000          0.493963E-03
      0.180000          0.490689E-03
      0.185000          0.487584E-03
      0.190000          0.483743E-03
      0.195000          0.478604E-03
      0.200000          0.471878E-03
      0.205000          0.463486E-03
      0.210000          0.453498E-03
      0.215000          0.442080E-03
      0.220000          0.429456E-03
      0.225000          0.415870E-03
      0.230000          0.401569E-03
      0.235000          0.386781E-03
      0.240000          0.371714E-03
      0.245000          0.356548E-03
      0.250000          0.341439E-03
      0.255000          0.326520E-03
      0.260000          0.311907E-03
      0.265000          0.297702E-03
      0.270000          0.283997E-03
      0.275000          0.270878E-03
      0.280000          0.258421E-03
      0.285000          0.246695E-03
      0.290000          0.235761E-03
      0.295000          0.225667E-03
      0.300000          0.216446E-03
      0.305000          0.208114E-03
      0.310000          0.200671E-03
      0.315000          0.194094E-03
      0.320000          0.188343E-03
      0.325000          0.183360E-03
      0.330000          0.179070E-03
      0.335000          0.175388E-03
      0.340000          0.172218E-03
      0.345000          0.169462E-03
      0.350000          0.167024E-03
      0.355000          0.164810E-03
      0.360000          0.162737E-03
      0.365000          0.160733E-03
      0.370000          0.158738E-03
      0.375000          0.156711E-03
      0.380000          0.154621E-03
      0.385000          0.152456E-03
      0.390000          0.150213E-03
      0.395000          0.147901E-03
      0.400000          0.145538E-03
      0.405000          0.143146E-03
      0.410000          0.140751E-03
      0.415000          0.138379E-03
      0.420000          0.136053E-03
      0.425000          0.133795E-03
      0.430000          0.131621E-03
      0.435000          0.129541E-03
      0.440000          0.127562E-03
      0.445000          0.125682E-03
      0.450000          0.123899E-03
      0.455000          0.122204E-03
      0.460000          0.120588E-03
      0.465000          0.119039E-03
      0.470000          0.117546E-03
      0.475000          0.116097E-03
      0.480000          0.114682E-03
      0.485000          0.113294E-03
      0.490000          0.111926E-03
      0.495000          0.110574E-03
      0.500000          0.109234E-03
