 I_abs(s)[cm^-1]/c[mg/ml]
       0.00000          0.142919E-01
      0.500000E-02      0.142035E-01
      0.100000E-01      0.139421E-01
      0.150000E-01      0.135186E-01
      0.200000E-01      0.129502E-01
      0.250000E-01      0.122599E-01
      0.300000E-01      0.114741E-01
      0.350000E-01      0.106218E-01
      0.400000E-01      0.973244E-02
      0.450000E-01      0.883430E-02
      0.500000E-01      0.795312E-02
      0.550000E-01      0.711081E-02
      0.600000E-01      0.632469E-02
      0.650000E-01      0.560695E-02
      0.700000E-01      0.496465E-02
      0.750000E-01      0.440001E-02
      0.800000E-01      0.391099E-02
      0.850000E-01      0.349214E-02
      0.900000E-01      0.313555E-02
      0.950000E-01      0.283186E-02
      0.100000          0.257122E-02
      0.105000          0.234414E-02
      0.110000          0.214213E-02
      0.115000          0.195816E-02
      0.120000          0.178696E-02
      0.125000          0.162501E-02
      0.130000          0.147043E-02
      0.135000          0.132275E-02
      0.140000          0.118254E-02
      0.145000          0.105104E-02
      0.150000          0.929781E-03
      0.155000          0.820272E-03
      0.160000          0.723716E-03
      0.165000          0.640844E-03
      0.170000          0.571816E-03
      0.175000          0.516203E-03
      0.180000          0.473045E-03
      0.185000          0.440949E-03
      0.190000          0.418218E-03
      0.195000          0.402996E-03
      0.200000          0.393398E-03
      0.205000          0.387636E-03
      0.210000          0.384105E-03
      0.215000          0.381450E-03
      0.220000          0.378600E-03
      0.225000          0.374771E-03
      0.230000          0.369460E-03
      0.235000          0.362410E-03
      0.240000          0.353573E-03
      0.245000          0.343067E-03
      0.250000          0.331130E-03
      0.255000          0.318084E-03
      0.260000          0.304290E-03
      0.265000          0.290127E-03
      0.270000          0.275955E-03
      0.275000          0.262105E-03
      0.280000          0.248857E-03
      0.285000          0.236433E-03
      0.290000          0.224994E-03
      0.295000          0.214634E-03
      0.300000          0.205386E-03
      0.305000          0.197226E-03
      0.310000          0.190087E-03
      0.315000          0.183861E-03
      0.320000          0.178418E-03
      0.325000          0.173615E-03
      0.330000          0.169306E-03
      0.335000          0.165355E-03
      0.340000          0.161637E-03
      0.345000          0.158048E-03
      0.350000          0.154505E-03
      0.355000          0.150947E-03
      0.360000          0.147332E-03
      0.365000          0.143641E-03
      0.370000          0.139870E-03
      0.375000          0.136031E-03
      0.380000          0.132152E-03
      0.385000          0.128276E-03
      0.390000          0.124460E-03
      0.395000          0.120772E-03
      0.400000          0.117296E-03
      0.405000          0.114124E-03
      0.410000          0.111353E-03
      0.415000          0.109078E-03
      0.420000          0.107387E-03
      0.425000          0.106350E-03
      0.430000          0.106012E-03
      0.435000          0.106384E-03
      0.440000          0.107435E-03
      0.445000          0.109095E-03
      0.450000          0.111249E-03
      0.455000          0.113743E-03
      0.460000          0.116395E-03
      0.465000          0.119004E-03
      0.470000          0.121363E-03
      0.475000          0.123276E-03
      0.480000          0.124572E-03
      0.485000          0.125119E-03
      0.490000          0.124832E-03
      0.495000          0.123683E-03
      0.500000          0.121698E-03
