 I_abs(s)[cm^-1]/c[mg/ml]
       0.00000          0.145129E-01
      0.500000E-02      0.144602E-01
      0.100000E-01      0.143032E-01
      0.150000E-01      0.140455E-01
      0.200000E-01      0.136929E-01
      0.250000E-01      0.132532E-01
      0.300000E-01      0.127359E-01
      0.350000E-01      0.121520E-01
      0.400000E-01      0.115136E-01
      0.450000E-01      0.108331E-01
      0.500000E-01      0.101236E-01
      0.550000E-01      0.939762E-02
      0.600000E-01      0.866736E-02
      0.650000E-01      0.794411E-02
      0.700000E-01      0.723800E-02
      0.750000E-01      0.655781E-02
      0.800000E-01      0.591084E-02
      0.850000E-01      0.530276E-02
      0.900000E-01      0.473768E-02
      0.950000E-01      0.421814E-02
      0.100000          0.374523E-02
      0.105000          0.331876E-02
      0.110000          0.293740E-02
      0.115000          0.259891E-02
      0.120000          0.230036E-02
      0.125000          0.203832E-02
      0.130000          0.180909E-02
      0.135000          0.160888E-02
      0.140000          0.143394E-02
      0.145000          0.128076E-02
      0.150000          0.114611E-02
      0.155000          0.102711E-02
      0.160000          0.921331E-03
      0.165000          0.826717E-03
      0.170000          0.741637E-03
      0.175000          0.664823E-03
      0.180000          0.595329E-03
      0.185000          0.532475E-03
      0.190000          0.475789E-03
      0.195000          0.424946E-03
      0.200000          0.379715E-03
      0.205000          0.339910E-03
      0.210000          0.305352E-03
      0.215000          0.275838E-03
      0.220000          0.251123E-03
      0.225000          0.230910E-03
      0.230000          0.214846E-03
      0.235000          0.202531E-03
      0.240000          0.193521E-03
      0.245000          0.187348E-03
      0.250000          0.183534E-03
      0.255000          0.181602E-03
      0.260000          0.181095E-03
      0.265000          0.181588E-03
      0.270000          0.182695E-03
      0.275000          0.184080E-03
      0.280000          0.185459E-03
      0.285000          0.186604E-03
      0.290000          0.187339E-03
      0.295000          0.187540E-03
      0.300000          0.187129E-03
      0.305000          0.186070E-03
      0.310000          0.184362E-03
      0.315000          0.182033E-03
      0.320000          0.179134E-03
      0.325000          0.175735E-03
      0.330000          0.171915E-03
      0.335000          0.167763E-03
      0.340000          0.163370E-03
      0.345000          0.158828E-03
      0.350000          0.154223E-03
      0.355000          0.149637E-03
      0.360000          0.145145E-03
      0.365000          0.140810E-03
      0.370000          0.136687E-03
      0.375000          0.132817E-03
      0.380000          0.129231E-03
      0.385000          0.125948E-03
      0.390000          0.122974E-03
      0.395000          0.120308E-03
      0.400000          0.117934E-03
      0.405000          0.115832E-03
      0.410000          0.113973E-03
      0.415000          0.112324E-03
      0.420000          0.110849E-03
      0.425000          0.109509E-03
      0.430000          0.108269E-03
      0.435000          0.107092E-03
      0.440000          0.105947E-03
      0.445000          0.104807E-03
      0.450000          0.103652E-03
      0.455000          0.102466E-03
      0.460000          0.101238E-03
      0.465000          0.999656E-04
      0.470000          0.986496E-04
      0.475000          0.972957E-04
      0.480000          0.959128E-04
      0.485000          0.945121E-04
      0.490000          0.931062E-04
      0.495000          0.917077E-04
      0.500000          0.903288E-04
