 I_abs(s)[cm^-1]/c[mg/ml]
       0.00000          0.131144E-01
      0.500000E-02      0.129628E-01
      0.100000E-01      0.125203E-01
      0.150000E-01      0.118222E-01
      0.200000E-01      0.109227E-01
      0.250000E-01      0.988811E-02
      0.300000E-01      0.878924E-02
      0.350000E-01      0.769378E-02
      0.400000E-01      0.665949E-02
      0.450000E-01      0.572936E-02
      0.500000E-01      0.492918E-02
      0.550000E-01      0.426761E-02
      0.600000E-01      0.373840E-02
      0.650000E-01      0.332431E-02
      0.700000E-01      0.300173E-02
      0.750000E-01      0.274541E-02
      0.800000E-01      0.253231E-02
      0.850000E-01      0.234437E-02
      0.900000E-01      0.216977E-02
      0.950000E-01      0.200280E-02
      0.100000          0.184275E-02
      0.105000          0.169202E-02
      0.110000          0.155424E-02
      0.115000          0.143252E-02
      0.120000          0.132833E-02
      0.125000          0.124102E-02
      0.130000          0.116801E-02
      0.135000          0.110543E-02
      0.140000          0.104899E-02
      0.145000          0.994900E-03
      0.150000          0.940451E-03
      0.155000          0.884397E-03
      0.160000          0.826902E-03
      0.165000          0.769215E-03
      0.170000          0.713179E-03
      0.175000          0.660690E-03
      0.180000          0.613258E-03
      0.185000          0.571738E-03
      0.190000          0.536259E-03
      0.195000          0.506332E-03
      0.200000          0.481083E-03
      0.205000          0.459510E-03
      0.210000          0.440721E-03
      0.215000          0.424071E-03
      0.220000          0.409197E-03
      0.225000          0.395964E-03
      0.230000          0.384342E-03
      0.235000          0.374273E-03
      0.240000          0.365567E-03
      0.245000          0.357856E-03
      0.250000          0.350620E-03
      0.255000          0.343260E-03
      0.260000          0.335208E-03
      0.265000          0.326042E-03
      0.270000          0.315556E-03
      0.275000          0.303793E-03
      0.280000          0.291022E-03
      0.285000          0.277670E-03
      0.290000          0.264225E-03
      0.295000          0.251146E-03
      0.300000          0.238785E-03
      0.305000          0.227346E-03
      0.310000          0.216884E-03
      0.315000          0.207335E-03
      0.320000          0.198562E-03
      0.325000          0.190416E-03
      0.330000          0.182773E-03
      0.335000          0.175564E-03
      0.340000          0.168774E-03
      0.345000          0.162426E-03
      0.350000          0.156554E-03
      0.355000          0.151177E-03
      0.360000          0.146275E-03
      0.365000          0.141789E-03
      0.370000          0.137624E-03
      0.375000          0.133674E-03
      0.380000          0.129843E-03
      0.385000          0.126069E-03
      0.390000          0.122337E-03
      0.395000          0.118681E-03
      0.400000          0.115172E-03
      0.405000          0.111901E-03
      0.410000          0.108954E-03
      0.415000          0.106393E-03
      0.420000          0.104240E-03
      0.425000          0.102475E-03
      0.430000          0.101040E-03
      0.435000          0.998507E-04
      0.440000          0.988157E-04
      0.445000          0.978518E-04
      0.450000          0.968968E-04
      0.455000          0.959153E-04
      0.460000          0.948976E-04
      0.465000          0.938530E-04
      0.470000          0.927991E-04
      0.475000          0.917505E-04
      0.480000          0.907095E-04
      0.485000          0.896616E-04
      0.490000          0.885756E-04
      0.495000          0.874085E-04
      0.500000          0.861139E-04
