 I_abs(s)[cm^-1]/c[mg/ml]
       0.00000          0.139403E-01
      0.500000E-02      0.138604E-01
      0.100000E-01      0.136238E-01
      0.150000E-01      0.132392E-01
      0.200000E-01      0.127208E-01
      0.250000E-01      0.120872E-01
      0.300000E-01      0.113603E-01
      0.350000E-01      0.105640E-01
      0.400000E-01      0.972314E-02
      0.450000E-01      0.886205E-02
      0.500000E-01      0.800332E-02
      0.550000E-01      0.716698E-02
      0.600000E-01      0.636974E-02
      0.650000E-01      0.562459E-02
      0.700000E-01      0.494063E-02
      0.750000E-01      0.432319E-02
      0.800000E-01      0.377417E-02
      0.850000E-01      0.329256E-02
      0.900000E-01      0.287500E-02
      0.950000E-01      0.251649E-02
      0.100000          0.221097E-02
      0.105000          0.195195E-02
      0.110000          0.173291E-02
      0.115000          0.154773E-02
      0.120000          0.139089E-02
      0.125000          0.125761E-02
      0.130000          0.114384E-02
      0.135000          0.104627E-02
      0.140000          0.962184E-03
      0.145000          0.889372E-03
      0.150000          0.826002E-03
      0.155000          0.770521E-03
      0.160000          0.721575E-03
      0.165000          0.677968E-03
      0.170000          0.638633E-03
      0.175000          0.602635E-03
      0.180000          0.569183E-03
      0.185000          0.537641E-03
      0.190000          0.507545E-03
      0.195000          0.478601E-03
      0.200000          0.450673E-03
      0.205000          0.423767E-03
      0.210000          0.397991E-03
      0.215000          0.373520E-03
      0.220000          0.350553E-03
      0.225000          0.329277E-03
      0.230000          0.309838E-03
      0.235000          0.292319E-03
      0.240000          0.276732E-03
      0.245000          0.263019E-03
      0.250000          0.251064E-03
      0.255000          0.240706E-03
      0.260000          0.231763E-03
      0.265000          0.224044E-03
      0.270000          0.217373E-03
      0.275000          0.211592E-03
      0.280000          0.206576E-03
      0.285000          0.202228E-03
      0.290000          0.198477E-03
      0.295000          0.195272E-03
      0.300000          0.192573E-03
      0.305000          0.190345E-03
      0.310000          0.188550E-03
      0.315000          0.187142E-03
      0.320000          0.186066E-03
      0.325000          0.185259E-03
      0.330000          0.184651E-03
      0.335000          0.184170E-03
      0.340000          0.183747E-03
      0.345000          0.183317E-03
      0.350000          0.182824E-03
      0.355000          0.182222E-03
      0.360000          0.181475E-03
      0.365000          0.180558E-03
      0.370000          0.179450E-03
      0.375000          0.178140E-03
      0.380000          0.176615E-03
      0.385000          0.174867E-03
      0.390000          0.172887E-03
      0.395000          0.170667E-03
      0.400000          0.168199E-03
      0.405000          0.165480E-03
      0.410000          0.162510E-03
      0.415000          0.159295E-03
      0.420000          0.155849E-03
      0.425000          0.152196E-03
      0.430000          0.148369E-03
      0.435000          0.144411E-03
      0.440000          0.140369E-03
      0.445000          0.136301E-03
      0.450000          0.132263E-03
      0.455000          0.128313E-03
      0.460000          0.124508E-03
      0.465000          0.120897E-03
      0.470000          0.117521E-03
      0.475000          0.114414E-03
      0.480000          0.111597E-03
      0.485000          0.109079E-03
      0.490000          0.106860E-03
      0.495000          0.104928E-03
      0.500000          0.103261E-03
