 I_abs(s)[cm^-1]/c[mg/ml]
       0.00000          0.145050E-01
      0.500000E-02      0.144460E-01
      0.100000E-01      0.142703E-01
      0.150000E-01      0.139821E-01
      0.200000E-01      0.135881E-01
      0.250000E-01      0.130972E-01
      0.300000E-01      0.125205E-01
      0.350000E-01      0.118708E-01
      0.400000E-01      0.111619E-01
      0.450000E-01      0.104085E-01
      0.500000E-01      0.962554E-02
      0.550000E-01      0.882787E-02
      0.600000E-01      0.802964E-02
      0.650000E-01      0.724405E-02
      0.700000E-01      0.648295E-02
      0.750000E-01      0.575662E-02
      0.800000E-01      0.507354E-02
      0.850000E-01      0.444029E-02
      0.900000E-01      0.386152E-02
      0.950000E-01      0.333998E-02
      0.100000          0.287665E-02
      0.105000          0.247087E-02
      0.110000          0.212055E-02
      0.115000          0.182244E-02
      0.120000          0.157237E-02
      0.125000          0.136550E-02
      0.130000          0.119662E-02
      0.135000          0.106035E-02
      0.140000          0.951376E-03
      0.145000          0.864658E-03
      0.150000          0.795539E-03
      0.155000          0.739877E-03
      0.160000          0.694107E-03
      0.165000          0.655279E-03
      0.170000          0.621054E-03
      0.175000          0.589677E-03
      0.180000          0.559922E-03
      0.185000          0.531027E-03
      0.190000          0.502612E-03
      0.195000          0.474597E-03
      0.200000          0.447118E-03
      0.205000          0.420447E-03
      0.210000          0.394930E-03
      0.215000          0.370919E-03
      0.220000          0.348734E-03
      0.225000          0.328627E-03
      0.230000          0.310762E-03
      0.235000          0.295208E-03
      0.240000          0.281935E-03
      0.245000          0.270830E-03
      0.250000          0.261704E-03
      0.255000          0.254314E-03
      0.260000          0.248380E-03
      0.265000          0.243607E-03
      0.270000          0.239699E-03
      0.275000          0.236375E-03
      0.280000          0.233383E-03
      0.285000          0.230504E-03
      0.290000          0.227562E-03
      0.295000          0.224421E-03
      0.300000          0.220988E-03
      0.305000          0.217205E-03
      0.310000          0.213050E-03
      0.315000          0.208527E-03
      0.320000          0.203664E-03
      0.325000          0.198503E-03
      0.330000          0.193100E-03
      0.335000          0.187514E-03
      0.340000          0.181812E-03
      0.345000          0.176058E-03
      0.350000          0.170315E-03
      0.355000          0.164644E-03
      0.360000          0.159102E-03
      0.365000          0.153741E-03
      0.370000          0.148610E-03
      0.375000          0.143751E-03
      0.380000          0.139202E-03
      0.385000          0.134996E-03
      0.390000          0.131157E-03
      0.395000          0.127705E-03
      0.400000          0.124651E-03
      0.405000          0.121998E-03
      0.410000          0.119739E-03
      0.415000          0.117860E-03
      0.420000          0.116338E-03
      0.425000          0.115142E-03
      0.430000          0.114233E-03
      0.435000          0.113567E-03
      0.440000          0.113094E-03
      0.445000          0.112764E-03
      0.450000          0.112525E-03
      0.455000          0.112326E-03
      0.460000          0.112122E-03
      0.465000          0.111871E-03
      0.470000          0.111539E-03
      0.475000          0.111101E-03
      0.480000          0.110539E-03
      0.485000          0.109847E-03
      0.490000          0.109024E-03
      0.495000          0.108080E-03
      0.500000          0.107032E-03
