 I_abs(s)[cm^-1]/c[mg/ml]
       0.00000          0.146957E-01
      0.500000E-02      0.146363E-01
      0.100000E-01      0.144593E-01
      0.150000E-01      0.141690E-01
      0.200000E-01      0.137720E-01
      0.250000E-01      0.132774E-01
      0.300000E-01      0.126963E-01
      0.350000E-01      0.120413E-01
      0.400000E-01      0.113265E-01
      0.450000E-01      0.105665E-01
      0.500000E-01      0.977652E-02
      0.550000E-01      0.897127E-02
      0.600000E-01      0.816507E-02
      0.650000E-01      0.737122E-02
      0.700000E-01      0.660168E-02
      0.750000E-01      0.586682E-02
      0.800000E-01      0.517523E-02
      0.850000E-01      0.453361E-02
      0.900000E-01      0.394670E-02
      0.950000E-01      0.341737E-02
      0.100000          0.294665E-02
      0.105000          0.253396E-02
      0.110000          0.217728E-02
      0.115000          0.187338E-02
      0.120000          0.161810E-02
      0.125000          0.140661E-02
      0.130000          0.123367E-02
      0.135000          0.109385E-02
      0.140000          0.981809E-03
      0.145000          0.892414E-03
      0.150000          0.820941E-03
      0.155000          0.763164E-03
      0.160000          0.715438E-03
      0.165000          0.674733E-03
      0.170000          0.638634E-03
      0.175000          0.605323E-03
      0.180000          0.573522E-03
      0.185000          0.542429E-03
      0.190000          0.511641E-03
      0.195000          0.481071E-03
      0.200000          0.450864E-03
      0.205000          0.421316E-03
      0.210000          0.392809E-03
      0.215000          0.365744E-03
      0.220000          0.340499E-03
      0.225000          0.317388E-03
      0.230000          0.296643E-03
      0.235000          0.278399E-03
      0.240000          0.262692E-03
      0.245000          0.249469E-03
      0.250000          0.238593E-03
      0.255000          0.229868E-03
      0.260000          0.223047E-03
      0.265000          0.217859E-03
      0.270000          0.214020E-03
      0.275000          0.211252E-03
      0.280000          0.209292E-03
      0.285000          0.207903E-03
      0.290000          0.206878E-03
      0.295000          0.206046E-03
      0.300000          0.205268E-03
      0.305000          0.204438E-03
      0.310000          0.203479E-03
      0.315000          0.202340E-03
      0.320000          0.200988E-03
      0.325000          0.199406E-03
      0.330000          0.197589E-03
      0.335000          0.195539E-03
      0.340000          0.193262E-03
      0.345000          0.190769E-03
      0.350000          0.188070E-03
      0.355000          0.185178E-03
      0.360000          0.182103E-03
      0.365000          0.178860E-03
      0.370000          0.175461E-03
      0.375000          0.171922E-03
      0.380000          0.168260E-03
      0.385000          0.164492E-03
      0.390000          0.160638E-03
      0.395000          0.156720E-03
      0.400000          0.152759E-03
      0.405000          0.148778E-03
      0.410000          0.144800E-03
      0.415000          0.140846E-03
      0.420000          0.136938E-03
      0.425000          0.133094E-03
      0.430000          0.129333E-03
      0.435000          0.125671E-03
      0.440000          0.122121E-03
      0.445000          0.118695E-03
      0.450000          0.115405E-03
      0.455000          0.112259E-03
      0.460000          0.109267E-03
      0.465000          0.106434E-03
      0.470000          0.103767E-03
      0.475000          0.101271E-03
      0.480000          0.989506E-04
      0.485000          0.968087E-04
      0.490000          0.948467E-04
      0.495000          0.930644E-04
      0.500000          0.914594E-04
