 I_abs(s)[cm^-1]/c[mg/ml]
       0.00000          0.146081E-01
      0.500000E-02      0.145539E-01
      0.100000E-01      0.143926E-01
      0.150000E-01      0.141281E-01
      0.200000E-01      0.137667E-01
      0.250000E-01      0.133168E-01
      0.300000E-01      0.127889E-01
      0.350000E-01      0.121947E-01
      0.400000E-01      0.115470E-01
      0.450000E-01      0.108591E-01
      0.500000E-01      0.101443E-01
      0.550000E-01      0.941586E-02
      0.600000E-01      0.868592E-02
      0.650000E-01      0.796573E-02
      0.700000E-01      0.726516E-02
      0.750000E-01      0.659250E-02
      0.800000E-01      0.595441E-02
      0.850000E-01      0.535584E-02
      0.900000E-01      0.480013E-02
      0.950000E-01      0.428907E-02
      0.100000          0.382305E-02
      0.105000          0.340134E-02
      0.110000          0.302219E-02
      0.115000          0.268318E-02
      0.120000          0.238135E-02
      0.125000          0.211346E-02
      0.130000          0.187618E-02
      0.135000          0.166621E-02
      0.140000          0.148044E-02
      0.145000          0.131599E-02
      0.150000          0.117029E-02
      0.155000          0.104112E-02
      0.160000          0.926539E-03
      0.165000          0.824929E-03
      0.170000          0.734917E-03
      0.175000          0.655340E-03
      0.180000          0.585200E-03
      0.185000          0.523619E-03
      0.190000          0.469800E-03
      0.195000          0.423001E-03
      0.200000          0.382512E-03
      0.205000          0.347647E-03
      0.210000          0.317741E-03
      0.215000          0.292153E-03
      0.220000          0.270278E-03
      0.225000          0.251553E-03
      0.230000          0.235470E-03
      0.235000          0.221586E-03
      0.240000          0.209527E-03
      0.245000          0.198990E-03
      0.250000          0.189741E-03
      0.255000          0.181611E-03
      0.260000          0.174482E-03
      0.265000          0.168279E-03
      0.270000          0.162956E-03
      0.275000          0.158483E-03
      0.280000          0.154834E-03
      0.285000          0.151977E-03
      0.290000          0.149869E-03
      0.295000          0.148447E-03
      0.300000          0.147632E-03
      0.305000          0.147326E-03
      0.310000          0.147419E-03
      0.315000          0.147790E-03
      0.320000          0.148320E-03
      0.325000          0.148891E-03
      0.330000          0.149399E-03
      0.335000          0.149756E-03
      0.340000          0.149890E-03
      0.345000          0.149757E-03
      0.350000          0.149332E-03
      0.355000          0.148612E-03
      0.360000          0.147614E-03
      0.365000          0.146369E-03
      0.370000          0.144920E-03
      0.375000          0.143318E-03
      0.380000          0.141612E-03
      0.385000          0.139854E-03
      0.390000          0.138086E-03
      0.395000          0.136345E-03
      0.400000          0.134659E-03
      0.405000          0.133043E-03
      0.410000          0.131506E-03
      0.415000          0.130047E-03
      0.420000          0.128657E-03
      0.425000          0.127324E-03
      0.430000          0.126030E-03
      0.435000          0.124759E-03
      0.440000          0.123493E-03
      0.445000          0.122217E-03
      0.450000          0.120918E-03
      0.455000          0.119588E-03
      0.460000          0.118220E-03
      0.465000          0.116813E-03
      0.470000          0.115366E-03
      0.475000          0.113882E-03
      0.480000          0.112365E-03
      0.485000          0.110820E-03
      0.490000          0.109251E-03
      0.495000          0.107664E-03
      0.500000          0.106060E-03
