 I_abs(s)[cm^-1]/c[mg/ml]
       0.00000          0.145446E-01
      0.500000E-02      0.144914E-01
      0.100000E-01      0.143332E-01
      0.150000E-01      0.140737E-01
      0.200000E-01      0.137190E-01
      0.250000E-01      0.132775E-01
      0.300000E-01      0.127592E-01
      0.350000E-01      0.121755E-01
      0.400000E-01      0.115390E-01
      0.450000E-01      0.108624E-01
      0.500000E-01      0.101590E-01
      0.550000E-01      0.944126E-02
      0.600000E-01      0.872129E-02
      0.650000E-01      0.800996E-02
      0.700000E-01      0.731688E-02
      0.750000E-01      0.665017E-02
      0.800000E-01      0.601638E-02
      0.850000E-01      0.542040E-02
      0.900000E-01      0.486560E-02
      0.950000E-01      0.435385E-02
      0.100000          0.388572E-02
      0.105000          0.346063E-02
      0.110000          0.307711E-02
      0.115000          0.273294E-02
      0.120000          0.242544E-02
      0.125000          0.215161E-02
      0.130000          0.190832E-02
      0.135000          0.169248E-02
      0.140000          0.150109E-02
      0.145000          0.133139E-02
      0.150000          0.118086E-02
      0.155000          0.104728E-02
      0.160000          0.928722E-03
      0.165000          0.823505E-03
      0.170000          0.730206E-03
      0.175000          0.647606E-03
      0.180000          0.574657E-03
      0.185000          0.510441E-03
      0.190000          0.454142E-03
      0.195000          0.405017E-03
      0.200000          0.362377E-03
      0.205000          0.325570E-03
      0.210000          0.293980E-03
      0.215000          0.267016E-03
      0.220000          0.244120E-03
      0.225000          0.224768E-03
      0.230000          0.208473E-03
      0.235000          0.194792E-03
      0.240000          0.183329E-03
      0.245000          0.173734E-03
      0.250000          0.165708E-03
      0.255000          0.158997E-03
      0.260000          0.153393E-03
      0.265000          0.148724E-03
      0.270000          0.144854E-03
      0.275000          0.141675E-03
      0.280000          0.139100E-03
      0.285000          0.137058E-03
      0.290000          0.135493E-03
      0.295000          0.134352E-03
      0.300000          0.133591E-03
      0.305000          0.133164E-03
      0.310000          0.133029E-03
      0.315000          0.133141E-03
      0.320000          0.133455E-03
      0.325000          0.133928E-03
      0.330000          0.134514E-03
      0.335000          0.135170E-03
      0.340000          0.135856E-03
      0.345000          0.136532E-03
      0.350000          0.137166E-03
      0.355000          0.137725E-03
      0.360000          0.138187E-03
      0.365000          0.138530E-03
      0.370000          0.138743E-03
      0.375000          0.138816E-03
      0.380000          0.138747E-03
      0.385000          0.138537E-03
      0.390000          0.138192E-03
      0.395000          0.137719E-03
      0.400000          0.137131E-03
      0.405000          0.136438E-03
      0.410000          0.135652E-03
      0.415000          0.134783E-03
      0.420000          0.133840E-03
      0.425000          0.132830E-03
      0.430000          0.131757E-03
      0.435000          0.130620E-03
      0.440000          0.129420E-03
      0.445000          0.128151E-03
      0.450000          0.126808E-03
      0.455000          0.125386E-03
      0.460000          0.123877E-03
      0.465000          0.122276E-03
      0.470000          0.120579E-03
      0.475000          0.118785E-03
      0.480000          0.116894E-03
      0.485000          0.114912E-03
      0.490000          0.112847E-03
      0.495000          0.110712E-03
      0.500000          0.108520E-03
