 I_abs(s)[cm^-1]/c[mg/ml]
       0.00000          0.141899E-01
      0.500000E-02      0.141309E-01
      0.100000E-01      0.139553E-01
      0.150000E-01      0.136674E-01
      0.200000E-01      0.132743E-01
      0.250000E-01      0.127855E-01
      0.300000E-01      0.122125E-01
      0.350000E-01      0.115686E-01
      0.400000E-01      0.108683E-01
      0.450000E-01      0.101267E-01
      0.500000E-01      0.935917E-02
      0.550000E-01      0.858078E-02
      0.600000E-01      0.780581E-02
      0.650000E-01      0.704736E-02
      0.700000E-01      0.631701E-02
      0.750000E-01      0.562458E-02
      0.800000E-01      0.497792E-02
      0.850000E-01      0.438284E-02
      0.900000E-01      0.384308E-02
      0.950000E-01      0.336044E-02
      0.100000          0.293489E-02
      0.105000          0.256480E-02
      0.110000          0.224715E-02
      0.115000          0.197788E-02
      0.120000          0.175214E-02
      0.125000          0.156457E-02
      0.130000          0.140965E-02
      0.135000          0.128185E-02
      0.140000          0.117596E-02
      0.145000          0.108717E-02
      0.150000          0.101125E-02
      0.155000          0.944621E-03
      0.160000          0.884395E-03
      0.165000          0.828367E-03
      0.170000          0.774983E-03
      0.175000          0.723270E-03
      0.180000          0.672751E-03
      0.185000          0.623350E-03
      0.190000          0.575281E-03
      0.195000          0.528951E-03
      0.200000          0.484862E-03
      0.205000          0.443533E-03
      0.210000          0.405430E-03
      0.215000          0.370915E-03
      0.220000          0.340217E-03
      0.225000          0.313417E-03
      0.230000          0.290443E-03
      0.235000          0.271090E-03
      0.240000          0.255035E-03
      0.245000          0.241871E-03
      0.250000          0.231136E-03
      0.255000          0.222347E-03
      0.260000          0.215032E-03
      0.265000          0.208752E-03
      0.270000          0.203126E-03
      0.275000          0.197842E-03
      0.280000          0.192667E-03
      0.285000          0.187448E-03
      0.290000          0.182107E-03
      0.295000          0.176632E-03
      0.300000          0.171067E-03
      0.305000          0.165492E-03
      0.310000          0.160015E-03
      0.315000          0.154754E-03
      0.320000          0.149820E-03
      0.325000          0.145312E-03
      0.330000          0.141308E-03
      0.335000          0.137853E-03
      0.340000          0.134965E-03
      0.345000          0.132631E-03
      0.350000          0.130810E-03
      0.355000          0.129437E-03
      0.360000          0.128433E-03
      0.365000          0.127706E-03
      0.370000          0.127163E-03
      0.375000          0.126712E-03
      0.380000          0.126272E-03
      0.385000          0.125774E-03
      0.390000          0.125163E-03
      0.395000          0.124406E-03
      0.400000          0.123483E-03
      0.405000          0.122394E-03
      0.410000          0.121152E-03
      0.415000          0.119782E-03
      0.420000          0.118315E-03
      0.425000          0.116788E-03
      0.430000          0.115239E-03
      0.435000          0.113702E-03
      0.440000          0.112204E-03
      0.445000          0.110768E-03
      0.450000          0.109406E-03
      0.455000          0.108122E-03
      0.460000          0.106910E-03
      0.465000          0.105759E-03
      0.470000          0.104649E-03
      0.475000          0.103558E-03
      0.480000          0.102464E-03
      0.485000          0.101342E-03
      0.490000          0.100173E-03
      0.495000          0.989411E-04
      0.500000          0.976358E-04
