 I_abs(s)[cm^-1]/c[mg/ml]
       0.00000          0.147196E-01
      0.500000E-02      0.146389E-01
      0.100000E-01      0.143994E-01
      0.150000E-01      0.140095E-01
      0.200000E-01      0.134826E-01
      0.250000E-01      0.128364E-01
      0.300000E-01      0.120919E-01
      0.350000E-01      0.112724E-01
      0.400000E-01      0.104024E-01
      0.450000E-01      0.950634E-02
      0.500000E-01      0.860745E-02
      0.550000E-01      0.772683E-02
      0.600000E-01      0.688266E-02
      0.650000E-01      0.608965E-02
      0.700000E-01      0.535872E-02
      0.750000E-01      0.469694E-02
      0.800000E-01      0.410768E-02
      0.850000E-01      0.359097E-02
      0.900000E-01      0.314401E-02
      0.950000E-01      0.276181E-02
      0.100000          0.243781E-02
      0.105000          0.216454E-02
      0.110000          0.193428E-02
      0.115000          0.173952E-02
      0.120000          0.157340E-02
      0.125000          0.143001E-02
      0.130000          0.130452E-02
      0.135000          0.119322E-02
      0.140000          0.109346E-02
      0.145000          0.100352E-02
      0.150000          0.922397E-03
      0.155000          0.849573E-03
      0.160000          0.784828E-03
      0.165000          0.728020E-03
      0.170000          0.678942E-03
      0.175000          0.637208E-03
      0.180000          0.602198E-03
      0.185000          0.573059E-03
      0.190000          0.548737E-03
      0.195000          0.528048E-03
      0.200000          0.509768E-03
      0.205000          0.492726E-03
      0.210000          0.475894E-03
      0.215000          0.458456E-03
      0.220000          0.439862E-03
      0.225000          0.419847E-03
      0.230000          0.398428E-03
      0.235000          0.375872E-03
      0.240000          0.352645E-03
      0.245000          0.329351E-03
      0.250000          0.306657E-03
      0.255000          0.285226E-03
      0.260000          0.265649E-03
      0.265000          0.248396E-03
      0.270000          0.233780E-03
      0.275000          0.221939E-03
      0.280000          0.212830E-03
      0.285000          0.206249E-03
      0.290000          0.201857E-03
      0.295000          0.199213E-03
      0.300000          0.197818E-03
      0.305000          0.197159E-03
      0.310000          0.196747E-03
      0.315000          0.196149E-03
      0.320000          0.195015E-03
      0.325000          0.193099E-03
      0.330000          0.190258E-03
      0.335000          0.186455E-03
      0.340000          0.181748E-03
      0.345000          0.176272E-03
      0.350000          0.170222E-03
      0.355000          0.163828E-03
      0.360000          0.157333E-03
      0.365000          0.150974E-03
      0.370000          0.144965E-03
      0.375000          0.139482E-03
      0.380000          0.134656E-03
      0.385000          0.130567E-03
      0.390000          0.127249E-03
      0.395000          0.124686E-03
      0.400000          0.122827E-03
      0.405000          0.121586E-03
      0.410000          0.120858E-03
      0.415000          0.120523E-03
      0.420000          0.120460E-03
      0.425000          0.120546E-03
      0.430000          0.120671E-03
      0.435000          0.120734E-03
      0.440000          0.120652E-03
      0.445000          0.120356E-03
      0.450000          0.119795E-03
      0.455000          0.118934E-03
      0.460000          0.117751E-03
      0.465000          0.116238E-03
      0.470000          0.114400E-03
      0.475000          0.112250E-03
      0.480000          0.109812E-03
      0.485000          0.107119E-03
      0.490000          0.104210E-03
      0.495000          0.101132E-03
      0.500000          0.979368E-04
