 I_abs(s)[cm^-1]/c[mg/ml]
       0.00000          0.139248E-01
      0.500000E-02      0.137970E-01
      0.100000E-01      0.134213E-01
      0.150000E-01      0.128203E-01
      0.200000E-01      0.120291E-01
      0.250000E-01      0.110921E-01
      0.300000E-01      0.100589E-01
      0.350000E-01      0.897976E-02
      0.400000E-01      0.790182E-02
      0.450000E-01      0.686556E-02
      0.500000E-01      0.590255E-02
      0.550000E-01      0.503419E-02
      0.600000E-01      0.427184E-02
      0.650000E-01      0.361774E-02
      0.700000E-01      0.306688E-02
      0.750000E-01      0.260917E-02
      0.800000E-01      0.223168E-02
      0.850000E-01      0.192075E-02
      0.900000E-01      0.166358E-02
      0.950000E-01      0.144928E-02
      0.100000          0.126936E-02
      0.105000          0.111771E-02
      0.110000          0.990250E-03
      0.115000          0.884338E-03
      0.120000          0.798163E-03
      0.125000          0.730204E-03
      0.130000          0.678850E-03
      0.135000          0.642217E-03
      0.140000          0.618123E-03
      0.145000          0.604194E-03
      0.150000          0.598029E-03
      0.155000          0.597365E-03
      0.160000          0.600201E-03
      0.165000          0.604861E-03
      0.170000          0.609983E-03
      0.175000          0.614471E-03
      0.180000          0.617424E-03
      0.185000          0.618075E-03
      0.190000          0.615759E-03
      0.195000          0.609922E-03
      0.200000          0.600161E-03
      0.205000          0.586285E-03
      0.210000          0.568375E-03
      0.215000          0.546815E-03
      0.220000          0.522293E-03
      0.225000          0.495751E-03
      0.230000          0.468296E-03
      0.235000          0.441087E-03
      0.240000          0.415204E-03
      0.245000          0.391541E-03
      0.250000          0.370716E-03
      0.255000          0.353027E-03
      0.260000          0.338450E-03
      0.265000          0.326677E-03
      0.270000          0.317180E-03
      0.275000          0.309300E-03
      0.280000          0.302327E-03
      0.285000          0.295589E-03
      0.290000          0.288506E-03
      0.295000          0.280643E-03
      0.300000          0.271726E-03
      0.305000          0.261659E-03
      0.310000          0.250507E-03
      0.315000          0.238486E-03
      0.320000          0.225929E-03
      0.325000          0.213258E-03
      0.330000          0.200936E-03
      0.335000          0.189431E-03
      0.340000          0.179160E-03
      0.345000          0.170454E-03
      0.350000          0.163512E-03
      0.355000          0.158382E-03
      0.360000          0.154952E-03
      0.365000          0.152961E-03
      0.370000          0.152032E-03
      0.375000          0.151720E-03
      0.380000          0.151569E-03
      0.385000          0.151175E-03
      0.390000          0.150233E-03
      0.395000          0.148576E-03
      0.400000          0.146187E-03
      0.405000          0.143189E-03
      0.410000          0.139809E-03
      0.415000          0.136339E-03
      0.420000          0.133070E-03
      0.425000          0.130248E-03
      0.430000          0.128028E-03
      0.435000          0.126453E-03
      0.440000          0.125448E-03
      0.445000          0.124842E-03
      0.450000          0.124396E-03
      0.455000          0.123850E-03
      0.460000          0.122960E-03
      0.465000          0.121538E-03
      0.470000          0.119473E-03
      0.475000          0.116745E-03
      0.480000          0.113412E-03
      0.485000          0.109600E-03
      0.490000          0.105472E-03
      0.495000          0.101207E-03
      0.500000          0.969718E-04
