 I_abs(s)[cm^-1]/c[mg/ml]
       0.00000          0.140259E-01
      0.500000E-02      0.139650E-01
      0.100000E-01      0.137838E-01
      0.150000E-01      0.134872E-01
      0.200000E-01      0.130828E-01
      0.250000E-01      0.125809E-01
      0.300000E-01      0.119941E-01
      0.350000E-01      0.113365E-01
      0.400000E-01      0.106236E-01
      0.450000E-01      0.987148E-02
      0.500000E-01      0.909610E-02
      0.550000E-01      0.831302E-02
      0.600000E-01      0.753676E-02
      0.650000E-01      0.678040E-02
      0.700000E-01      0.605524E-02
      0.750000E-01      0.537061E-02
      0.800000E-01      0.473369E-02
      0.850000E-01      0.414950E-02
      0.900000E-01      0.362099E-02
      0.950000E-01      0.314914E-02
      0.100000          0.273322E-02
      0.105000          0.237104E-02
      0.110000          0.205923E-02
      0.115000          0.179357E-02
      0.120000          0.156931E-02
      0.125000          0.138140E-02
      0.130000          0.122482E-02
      0.135000          0.109472E-02
      0.140000          0.986611E-03
      0.145000          0.896493E-03
      0.150000          0.820905E-03
      0.155000          0.756950E-03
      0.160000          0.702285E-03
      0.165000          0.655073E-03
      0.170000          0.613919E-03
      0.175000          0.577794E-03
      0.180000          0.545947E-03
      0.185000          0.517831E-03
      0.190000          0.493025E-03
      0.195000          0.471179E-03
      0.200000          0.451965E-03
      0.205000          0.435049E-03
      0.210000          0.420073E-03
      0.215000          0.406656E-03
      0.220000          0.394399E-03
      0.225000          0.382900E-03
      0.230000          0.371777E-03
      0.235000          0.360684E-03
      0.240000          0.349332E-03
      0.245000          0.337503E-03
      0.250000          0.325063E-03
      0.255000          0.311958E-03
      0.260000          0.298222E-03
      0.265000          0.283958E-03
      0.270000          0.269335E-03
      0.275000          0.254566E-03
      0.280000          0.239890E-03
      0.285000          0.225557E-03
      0.290000          0.211808E-03
      0.295000          0.198860E-03
      0.300000          0.186894E-03
      0.305000          0.176045E-03
      0.310000          0.166401E-03
      0.315000          0.157997E-03
      0.320000          0.150819E-03
      0.325000          0.144811E-03
      0.330000          0.139880E-03
      0.335000          0.135907E-03
      0.340000          0.132754E-03
      0.345000          0.130275E-03
      0.350000          0.128326E-03
      0.355000          0.126769E-03
      0.360000          0.125482E-03
      0.365000          0.124358E-03
      0.370000          0.123316E-03
      0.375000          0.122292E-03
      0.380000          0.121247E-03
      0.385000          0.120159E-03
      0.390000          0.119023E-03
      0.395000          0.117846E-03
      0.400000          0.116647E-03
      0.405000          0.115447E-03
      0.410000          0.114270E-03
      0.415000          0.113138E-03
      0.420000          0.112071E-03
      0.425000          0.111080E-03
      0.430000          0.110171E-03
      0.435000          0.109343E-03
      0.440000          0.108585E-03
      0.445000          0.107883E-03
      0.450000          0.107216E-03
      0.455000          0.106558E-03
      0.460000          0.105883E-03
      0.465000          0.105164E-03
      0.470000          0.104378E-03
      0.475000          0.103502E-03
      0.480000          0.102520E-03
      0.485000          0.101423E-03
      0.490000          0.100207E-03
      0.495000          0.988754E-04
      0.500000          0.974402E-04
