 I_abs(s)[cm^-1]/c[mg/ml]
       0.00000          0.142213E-01
      0.500000E-02      0.140648E-01
      0.100000E-01      0.136066E-01
      0.150000E-01      0.128785E-01
      0.200000E-01      0.119295E-01
      0.250000E-01      0.108203E-01
      0.300000E-01      0.961671E-02
      0.350000E-01      0.838336E-02
      0.400000E-01      0.717793E-02
      0.450000E-01      0.604704E-02
      0.500000E-01      0.502406E-02
      0.550000E-01      0.412865E-02
      0.600000E-01      0.336803E-02
      0.650000E-01      0.273922E-02
      0.700000E-01      0.223202E-02
      0.750000E-01      0.183178E-02
      0.800000E-01      0.152201E-02
      0.850000E-01      0.128625E-02
      0.900000E-01      0.110926E-02
      0.950000E-01      0.977709E-03
      0.100000          0.880349E-03
      0.105000          0.807960E-03
      0.110000          0.753184E-03
      0.115000          0.710338E-03
      0.120000          0.675241E-03
      0.125000          0.645040E-03
      0.130000          0.618010E-03
      0.135000          0.593314E-03
      0.140000          0.570712E-03
      0.145000          0.550266E-03
      0.150000          0.532067E-03
      0.155000          0.516041E-03
      0.160000          0.501862E-03
      0.165000          0.488971E-03
      0.170000          0.476687E-03
      0.175000          0.464358E-03
      0.180000          0.451504E-03
      0.185000          0.437917E-03
      0.190000          0.423683E-03
      0.195000          0.409129E-03
      0.200000          0.394722E-03
      0.205000          0.380945E-03
      0.210000          0.368181E-03
      0.215000          0.356648E-03
      0.220000          0.346377E-03
      0.225000          0.337241E-03
      0.230000          0.329019E-03
      0.235000          0.321460E-03
      0.240000          0.314345E-03
      0.245000          0.307521E-03
      0.250000          0.300901E-03
      0.255000          0.294448E-03
      0.260000          0.288146E-03
      0.265000          0.281965E-03
      0.270000          0.275847E-03
      0.275000          0.269697E-03
      0.280000          0.263399E-03
      0.285000          0.256836E-03
      0.290000          0.249917E-03
      0.295000          0.242598E-03
      0.300000          0.234899E-03
      0.305000          0.226910E-03
      0.310000          0.218780E-03
      0.315000          0.210712E-03
      0.320000          0.202938E-03
      0.325000          0.195694E-03
      0.330000          0.189201E-03
      0.335000          0.183633E-03
      0.340000          0.179104E-03
      0.345000          0.175644E-03
      0.350000          0.173202E-03
      0.355000          0.171642E-03
      0.360000          0.170765E-03
      0.365000          0.170326E-03
      0.370000          0.170065E-03
      0.375000          0.169735E-03
      0.380000          0.169127E-03
      0.385000          0.168085E-03
      0.390000          0.166516E-03
      0.395000          0.164388E-03
      0.400000          0.161718E-03
      0.405000          0.158563E-03
      0.410000          0.155007E-03
      0.415000          0.151148E-03
      0.420000          0.147092E-03
      0.425000          0.142943E-03
      0.430000          0.138803E-03
      0.435000          0.134760E-03
      0.440000          0.130886E-03
      0.445000          0.127231E-03
      0.450000          0.123812E-03
      0.455000          0.120620E-03
      0.460000          0.117614E-03
      0.465000          0.114736E-03
      0.470000          0.111916E-03
      0.475000          0.109091E-03
      0.480000          0.106213E-03
      0.485000          0.103261E-03
      0.490000          0.100241E-03
      0.495000          0.971866E-04
      0.500000          0.941467E-04
