 I_abs(s)[cm^-1]/c[mg/ml]
       0.00000          0.147595E-01
      0.500000E-02      0.146898E-01
      0.100000E-01      0.144828E-01
      0.150000E-01      0.141449E-01
      0.200000E-01      0.136864E-01
      0.250000E-01      0.131209E-01
      0.300000E-01      0.124648E-01
      0.350000E-01      0.117364E-01
      0.400000E-01      0.109551E-01
      0.450000E-01      0.101404E-01
      0.500000E-01      0.931132E-02
      0.550000E-01      0.848540E-02
      0.600000E-01      0.767836E-02
      0.650000E-01      0.690348E-02
      0.700000E-01      0.617136E-02
      0.750000E-01      0.548981E-02
      0.800000E-01      0.486389E-02
      0.850000E-01      0.429609E-02
      0.900000E-01      0.378663E-02
      0.950000E-01      0.333384E-02
      0.100000          0.293459E-02
      0.105000          0.258470E-02
      0.110000          0.227937E-02
      0.115000          0.201356E-02
      0.120000          0.178228E-02
      0.125000          0.158083E-02
      0.130000          0.140496E-02
      0.135000          0.125096E-02
      0.140000          0.111571E-02
      0.145000          0.996597E-03
      0.150000          0.891511E-03
      0.155000          0.798730E-03
      0.160000          0.716845E-03
      0.165000          0.644671E-03
      0.170000          0.581183E-03
      0.175000          0.525452E-03
      0.180000          0.476625E-03
      0.185000          0.433901E-03
      0.190000          0.396534E-03
      0.195000          0.363841E-03
      0.200000          0.335219E-03
      0.205000          0.310155E-03
      0.210000          0.288232E-03
      0.215000          0.269133E-03
      0.220000          0.252626E-03
      0.225000          0.238556E-03
      0.230000          0.226810E-03
      0.235000          0.217299E-03
      0.240000          0.209926E-03
      0.245000          0.204566E-03
      0.250000          0.201045E-03
      0.255000          0.199131E-03
      0.260000          0.198537E-03
      0.265000          0.198929E-03
      0.270000          0.199941E-03
      0.275000          0.201200E-03
      0.280000          0.202348E-03
      0.285000          0.203074E-03
      0.290000          0.203129E-03
      0.295000          0.202346E-03
      0.300000          0.200652E-03
      0.305000          0.198064E-03
      0.310000          0.194689E-03
      0.315000          0.190701E-03
      0.320000          0.186331E-03
      0.325000          0.181834E-03
      0.330000          0.177469E-03
      0.335000          0.173473E-03
      0.340000          0.170041E-03
      0.345000          0.167309E-03
      0.350000          0.165343E-03
      0.355000          0.164139E-03
      0.360000          0.163624E-03
      0.365000          0.163667E-03
      0.370000          0.164091E-03
      0.375000          0.164693E-03
      0.380000          0.165259E-03
      0.385000          0.165585E-03
      0.390000          0.165495E-03
      0.395000          0.164850E-03
      0.400000          0.163557E-03
      0.405000          0.161578E-03
      0.410000          0.158928E-03
      0.415000          0.155666E-03
      0.420000          0.151895E-03
      0.425000          0.147745E-03
      0.430000          0.143365E-03
      0.435000          0.138908E-03
      0.440000          0.134521E-03
      0.445000          0.130335E-03
      0.450000          0.126456E-03
      0.455000          0.122962E-03
      0.460000          0.119897E-03
      0.465000          0.117276E-03
      0.470000          0.115084E-03
      0.475000          0.113284E-03
      0.480000          0.111817E-03
      0.485000          0.110618E-03
      0.490000          0.109612E-03
      0.495000          0.108730E-03
      0.500000          0.107906E-03
