 I_abs(s)[cm^-1]/c[mg/ml]
       0.00000          0.145922E-01
      0.500000E-02      0.145209E-01
      0.100000E-01      0.143089E-01
      0.150000E-01      0.139625E-01
      0.200000E-01      0.134915E-01
      0.250000E-01      0.129094E-01
      0.300000E-01      0.122322E-01
      0.350000E-01      0.114780E-01
      0.400000E-01      0.106663E-01
      0.450000E-01      0.981717E-02
      0.500000E-01      0.895032E-02
      0.550000E-01      0.808451E-02
      0.600000E-01      0.723692E-02
      0.650000E-01      0.642258E-02
      0.700000E-01      0.565401E-02
      0.750000E-01      0.494097E-02
      0.800000E-01      0.429038E-02
      0.850000E-01      0.370639E-02
      0.900000E-01      0.319049E-02
      0.950000E-01      0.274185E-02
      0.100000          0.235765E-02
      0.105000          0.203347E-02
      0.110000          0.176376E-02
      0.115000          0.154221E-02
      0.120000          0.136219E-02
      0.125000          0.121708E-02
      0.130000          0.110057E-02
      0.135000          0.100685E-02
      0.140000          0.930803E-03
      0.145000          0.868081E-03
      0.150000          0.815108E-03
      0.155000          0.769071E-03
      0.160000          0.727851E-03
      0.165000          0.689927E-03
      0.170000          0.654274E-03
      0.175000          0.620251E-03
      0.180000          0.587501E-03
      0.185000          0.555856E-03
      0.190000          0.525269E-03
      0.195000          0.495754E-03
      0.200000          0.467357E-03
      0.205000          0.440129E-03
      0.210000          0.414122E-03
      0.215000          0.389391E-03
      0.220000          0.366000E-03
      0.225000          0.344026E-03
      0.230000          0.323564E-03
      0.235000          0.304730E-03
      0.240000          0.287652E-03
      0.245000          0.272462E-03
      0.250000          0.259280E-03
      0.255000          0.248199E-03
      0.260000          0.239267E-03
      0.265000          0.232471E-03
      0.270000          0.227729E-03
      0.275000          0.224883E-03
      0.280000          0.223699E-03
      0.285000          0.223876E-03
      0.290000          0.225059E-03
      0.295000          0.226858E-03
      0.300000          0.228872E-03
      0.305000          0.230711E-03
      0.310000          0.232020E-03
      0.315000          0.232500E-03
      0.320000          0.231926E-03
      0.325000          0.230158E-03
      0.330000          0.227143E-03
      0.335000          0.222919E-03
      0.340000          0.217601E-03
      0.345000          0.211374E-03
      0.350000          0.204470E-03
      0.355000          0.197152E-03
      0.360000          0.189690E-03
      0.365000          0.182344E-03
      0.370000          0.175343E-03
      0.375000          0.168872E-03
      0.380000          0.163064E-03
      0.385000          0.157989E-03
      0.390000          0.153659E-03
      0.395000          0.150031E-03
      0.400000          0.147014E-03
      0.405000          0.144482E-03
      0.410000          0.142286E-03
      0.415000          0.140271E-03
      0.420000          0.138285E-03
      0.425000          0.136197E-03
      0.430000          0.133900E-03
      0.435000          0.131326E-03
      0.440000          0.128443E-03
      0.445000          0.125257E-03
      0.450000          0.121812E-03
      0.455000          0.118179E-03
      0.460000          0.114453E-03
      0.465000          0.110741E-03
      0.470000          0.107155E-03
      0.475000          0.103797E-03
      0.480000          0.100759E-03
      0.485000          0.981095E-04
      0.490000          0.958906E-04
      0.495000          0.941178E-04
      0.500000          0.927784E-04
