 I_abs(s)[cm^-1]/c[mg/ml]
       0.00000          0.144338E-01
      0.500000E-02      0.143667E-01
      0.100000E-01      0.141675E-01
      0.150000E-01      0.138421E-01
      0.200000E-01      0.134001E-01
      0.250000E-01      0.128542E-01
      0.300000E-01      0.122196E-01
      0.350000E-01      0.115132E-01
      0.400000E-01      0.107530E-01
      0.450000E-01      0.995705E-02
      0.500000E-01      0.914306E-02
      0.550000E-01      0.832745E-02
      0.600000E-01      0.752497E-02
      0.650000E-01      0.674834E-02
      0.700000E-01      0.600801E-02
      0.750000E-01      0.531207E-02
      0.800000E-01      0.466633E-02
      0.850000E-01      0.407447E-02
      0.900000E-01      0.353827E-02
      0.950000E-01      0.305791E-02
      0.100000          0.263225E-02
      0.105000          0.225918E-02
      0.110000          0.193579E-02
      0.115000          0.165871E-02
      0.120000          0.142422E-02
      0.125000          0.122841E-02
      0.130000          0.106731E-02
      0.135000          0.936901E-03
      0.140000          0.833238E-03
      0.145000          0.752439E-03
      0.150000          0.690744E-03
      0.155000          0.644555E-03
      0.160000          0.610483E-03
      0.165000          0.585402E-03
      0.170000          0.566503E-03
      0.175000          0.551345E-03
      0.180000          0.537895E-03
      0.185000          0.524556E-03
      0.190000          0.510174E-03
      0.195000          0.494020E-03
      0.200000          0.475763E-03
      0.205000          0.455405E-03
      0.210000          0.433225E-03
      0.215000          0.409691E-03
      0.220000          0.385391E-03
      0.225000          0.360954E-03
      0.230000          0.336989E-03
      0.235000          0.314035E-03
      0.240000          0.292527E-03
      0.245000          0.272779E-03
      0.250000          0.254985E-03
      0.255000          0.239226E-03
      0.260000          0.225492E-03
      0.265000          0.213703E-03
      0.270000          0.203735E-03
      0.275000          0.195441E-03
      0.280000          0.188667E-03
      0.285000          0.183261E-03
      0.290000          0.179082E-03
      0.295000          0.175996E-03
      0.300000          0.173874E-03
      0.305000          0.172586E-03
      0.310000          0.171994E-03
      0.315000          0.171953E-03
      0.320000          0.172310E-03
      0.325000          0.172902E-03
      0.330000          0.173569E-03
      0.335000          0.174157E-03
      0.340000          0.174527E-03
      0.345000          0.174568E-03
      0.350000          0.174198E-03
      0.355000          0.173369E-03
      0.360000          0.172071E-03
      0.365000          0.170327E-03
      0.370000          0.168187E-03
      0.375000          0.165721E-03
      0.380000          0.163010E-03
      0.385000          0.160135E-03
      0.390000          0.157176E-03
      0.395000          0.154195E-03
      0.400000          0.151244E-03
      0.405000          0.148354E-03
      0.410000          0.145541E-03
      0.415000          0.142809E-03
      0.420000          0.140152E-03
      0.425000          0.137562E-03
      0.430000          0.135028E-03
      0.435000          0.132544E-03
      0.440000          0.130108E-03
      0.445000          0.127724E-03
      0.450000          0.125403E-03
      0.455000          0.123157E-03
      0.460000          0.121002E-03
      0.465000          0.118950E-03
      0.470000          0.117012E-03
      0.475000          0.115193E-03
      0.480000          0.113494E-03
      0.485000          0.111909E-03
      0.490000          0.110430E-03
      0.495000          0.109045E-03
      0.500000          0.107741E-03
