 I_abs(s)[cm^-1]/c[mg/ml]
       0.00000          0.146240E-01
      0.500000E-02      0.145681E-01
      0.100000E-01      0.144015E-01
      0.150000E-01      0.141280E-01
      0.200000E-01      0.137537E-01
      0.250000E-01      0.132868E-01
      0.300000E-01      0.127374E-01
      0.350000E-01      0.121171E-01
      0.400000E-01      0.114386E-01
      0.450000E-01      0.107153E-01
      0.500000E-01      0.996110E-02
      0.550000E-01      0.918951E-02
      0.600000E-01      0.841372E-02
      0.650000E-01      0.764602E-02
      0.700000E-01      0.689757E-02
      0.750000E-01      0.617812E-02
      0.800000E-01      0.549586E-02
      0.850000E-01      0.485734E-02
      0.900000E-01      0.426736E-02
      0.950000E-01      0.372907E-02
      0.100000          0.324400E-02
      0.105000          0.281224E-02
      0.110000          0.243257E-02
      0.115000          0.210269E-02
      0.120000          0.181944E-02
      0.125000          0.157899E-02
      0.130000          0.137710E-02
      0.135000          0.120930E-02
      0.140000          0.107109E-02
      0.145000          0.958088E-03
      0.150000          0.866155E-03
      0.155000          0.791503E-03
      0.160000          0.730750E-03
      0.165000          0.680960E-03
      0.170000          0.639649E-03
      0.175000          0.604775E-03
      0.180000          0.574705E-03
      0.185000          0.548172E-03
      0.190000          0.524224E-03
      0.195000          0.502167E-03
      0.200000          0.481515E-03
      0.205000          0.461938E-03
      0.210000          0.443218E-03
      0.215000          0.425211E-03
      0.220000          0.407821E-03
      0.225000          0.390979E-03
      0.230000          0.374628E-03
      0.235000          0.358720E-03
      0.240000          0.343213E-03
      0.245000          0.328069E-03
      0.250000          0.313265E-03
      0.255000          0.298791E-03
      0.260000          0.284654E-03
      0.265000          0.270884E-03
      0.270000          0.257531E-03
      0.275000          0.244663E-03
      0.280000          0.232361E-03
      0.285000          0.220717E-03
      0.290000          0.209823E-03
      0.295000          0.199765E-03
      0.300000          0.190617E-03
      0.305000          0.182431E-03
      0.310000          0.175233E-03
      0.315000          0.169023E-03
      0.320000          0.163766E-03
      0.325000          0.159400E-03
      0.330000          0.155832E-03
      0.335000          0.152948E-03
      0.340000          0.150613E-03
      0.345000          0.148683E-03
      0.350000          0.147006E-03
      0.355000          0.145436E-03
      0.360000          0.143837E-03
      0.365000          0.142085E-03
      0.370000          0.140081E-03
      0.375000          0.137748E-03
      0.380000          0.135038E-03
      0.385000          0.131926E-03
      0.390000          0.128418E-03
      0.395000          0.124541E-03
      0.400000          0.120345E-03
      0.405000          0.115898E-03
      0.410000          0.111277E-03
      0.415000          0.106572E-03
      0.420000          0.101874E-03
      0.425000          0.972714E-04
      0.430000          0.928504E-04
      0.435000          0.886874E-04
      0.440000          0.848482E-04
      0.445000          0.813857E-04
      0.450000          0.783390E-04
      0.455000          0.757330E-04
      0.460000          0.735784E-04
      0.465000          0.718732E-04
      0.470000          0.706034E-04
      0.475000          0.697450E-04
      0.480000          0.692656E-04
      0.485000          0.691265E-04
      0.490000          0.692847E-04
      0.495000          0.696942E-04
      0.500000          0.703086E-04
