 I_abs(s)[cm^-1]/c[mg/ml]
       0.00000          0.140415E-01
      0.500000E-02      0.139044E-01
      0.100000E-01      0.135020E-01
      0.150000E-01      0.128599E-01
      0.200000E-01      0.120179E-01
      0.250000E-01      0.110259E-01
      0.300000E-01      0.993918E-02
      0.350000E-01      0.881334E-02
      0.400000E-01      0.769964E-02
      0.450000E-01      0.664125E-02
      0.500000E-01      0.567078E-02
      0.550000E-01      0.480919E-02
      0.600000E-01      0.406605E-02
      0.650000E-01      0.344092E-02
      0.700000E-01      0.292561E-02
      0.750000E-01      0.250666E-02
      0.800000E-01      0.216796E-02
      0.850000E-01      0.189303E-02
      0.900000E-01      0.166671E-02
      0.950000E-01      0.147631E-02
      0.100000          0.131213E-02
      0.105000          0.116742E-02
      0.110000          0.103808E-02
      0.115000          0.922061E-03
      0.120000          0.818682E-03
      0.125000          0.728069E-03
      0.130000          0.650615E-03
      0.135000          0.586603E-03
      0.140000          0.535957E-03
      0.145000          0.498104E-03
      0.150000          0.471939E-03
      0.155000          0.455859E-03
      0.160000          0.447870E-03
      0.165000          0.445723E-03
      0.170000          0.447096E-03
      0.175000          0.449784E-03
      0.180000          0.451879E-03
      0.185000          0.451921E-03
      0.190000          0.448995E-03
      0.195000          0.442756E-03
      0.200000          0.433383E-03
      0.205000          0.421462E-03
      0.210000          0.407833E-03
      0.215000          0.393413E-03
      0.220000          0.379035E-03
      0.225000          0.365327E-03
      0.230000          0.352655E-03
      0.235000          0.341114E-03
      0.240000          0.330587E-03
      0.245000          0.320821E-03
      0.250000          0.311532E-03
      0.255000          0.302477E-03
      0.260000          0.293519E-03
      0.265000          0.284638E-03
      0.270000          0.275917E-03
      0.275000          0.267508E-03
      0.280000          0.259579E-03
      0.285000          0.252273E-03
      0.290000          0.245681E-03
      0.295000          0.239827E-03
      0.300000          0.234684E-03
      0.305000          0.230184E-03
      0.310000          0.226249E-03
      0.315000          0.222799E-03
      0.320000          0.219760E-03
      0.325000          0.217061E-03
      0.330000          0.214618E-03
      0.335000          0.212320E-03
      0.340000          0.210029E-03
      0.345000          0.207573E-03
      0.350000          0.204771E-03
      0.355000          0.201452E-03
      0.360000          0.197484E-03
      0.365000          0.192806E-03
      0.370000          0.187435E-03
      0.375000          0.181477E-03
      0.380000          0.175106E-03
      0.385000          0.168546E-03
      0.390000          0.162031E-03
      0.395000          0.155780E-03
      0.400000          0.149967E-03
      0.405000          0.144707E-03
      0.410000          0.140055E-03
      0.415000          0.136009E-03
      0.420000          0.132534E-03
      0.425000          0.129567E-03
      0.430000          0.127043E-03
      0.435000          0.124895E-03
      0.440000          0.123065E-03
      0.445000          0.121495E-03
      0.450000          0.120127E-03
      0.455000          0.118897E-03
      0.460000          0.117739E-03
      0.465000          0.116586E-03
      0.470000          0.115375E-03
      0.475000          0.114065E-03
      0.480000          0.112636E-03
      0.485000          0.111102E-03
      0.490000          0.109505E-03
      0.495000          0.107907E-03
      0.500000          0.106383E-03
