 I_abs(s)[cm^-1]/c[mg/ml]
       0.00000          0.146270E-01
      0.500000E-02      0.145836E-01
      0.100000E-01      0.144540E-01
      0.150000E-01      0.142405E-01
      0.200000E-01      0.139466E-01
      0.250000E-01      0.135772E-01
      0.300000E-01      0.131385E-01
      0.350000E-01      0.126374E-01
      0.400000E-01      0.120820E-01
      0.450000E-01      0.114809E-01
      0.500000E-01      0.108430E-01
      0.550000E-01      0.101776E-01
      0.600000E-01      0.949412E-02
      0.650000E-01      0.880154E-02
      0.700000E-01      0.810864E-02
      0.750000E-01      0.742361E-02
      0.800000E-01      0.675395E-02
      0.850000E-01      0.610636E-02
      0.900000E-01      0.548663E-02
      0.950000E-01      0.489959E-02
      0.100000          0.434906E-02
      0.105000          0.383786E-02
      0.110000          0.336783E-02
      0.115000          0.293989E-02
      0.120000          0.255408E-02
      0.125000          0.220966E-02
      0.130000          0.190523E-02
      0.135000          0.163881E-02
      0.140000          0.140796E-02
      0.145000          0.120992E-02
      0.150000          0.104168E-02
      0.155000          0.900115E-03
      0.160000          0.782063E-03
      0.165000          0.684427E-03
      0.170000          0.604235E-03
      0.175000          0.538703E-03
      0.180000          0.485277E-03
      0.185000          0.441665E-03
      0.190000          0.405857E-03
      0.195000          0.376129E-03
      0.200000          0.351037E-03
      0.205000          0.329408E-03
      0.210000          0.310317E-03
      0.215000          0.293064E-03
      0.220000          0.277143E-03
      0.225000          0.262214E-03
      0.230000          0.248073E-03
      0.235000          0.234620E-03
      0.240000          0.221832E-03
      0.245000          0.209741E-03
      0.250000          0.198409E-03
      0.255000          0.187913E-03
      0.260000          0.178329E-03
      0.265000          0.169721E-03
      0.270000          0.162136E-03
      0.275000          0.155598E-03
      0.280000          0.150107E-03
      0.285000          0.145637E-03
      0.290000          0.142143E-03
      0.295000          0.139557E-03
      0.300000          0.137799E-03
      0.305000          0.136775E-03
      0.310000          0.136383E-03
      0.315000          0.136521E-03
      0.320000          0.137084E-03
      0.325000          0.137971E-03
      0.330000          0.139085E-03
      0.335000          0.140340E-03
      0.340000          0.141656E-03
      0.345000          0.142961E-03
      0.350000          0.144197E-03
      0.355000          0.145314E-03
      0.360000          0.146270E-03
      0.365000          0.147034E-03
      0.370000          0.147584E-03
      0.375000          0.147905E-03
      0.380000          0.147987E-03
      0.385000          0.147829E-03
      0.390000          0.147433E-03
      0.395000          0.146806E-03
      0.400000          0.145957E-03
      0.405000          0.144899E-03
      0.410000          0.143645E-03
      0.415000          0.142211E-03
      0.420000          0.140610E-03
      0.425000          0.138858E-03
      0.430000          0.136968E-03
      0.435000          0.134953E-03
      0.440000          0.132824E-03
      0.445000          0.130591E-03
      0.450000          0.128262E-03
      0.455000          0.125845E-03
      0.460000          0.123345E-03
      0.465000          0.120769E-03
      0.470000          0.118122E-03
      0.475000          0.115410E-03
      0.480000          0.112640E-03
      0.485000          0.109819E-03
      0.490000          0.106957E-03
      0.495000          0.104066E-03
      0.500000          0.101161E-03
