 I_abs(s)[cm^-1]/c[mg/ml]
       0.00000          0.145079E-01
      0.500000E-02      0.144727E-01
      0.100000E-01      0.143674E-01
      0.150000E-01      0.141936E-01
      0.200000E-01      0.139536E-01
      0.250000E-01      0.136508E-01
      0.300000E-01      0.132893E-01
      0.350000E-01      0.128738E-01
      0.400000E-01      0.124100E-01
      0.450000E-01      0.119038E-01
      0.500000E-01      0.113615E-01
      0.550000E-01      0.107898E-01
      0.600000E-01      0.101955E-01
      0.650000E-01      0.958538E-02
      0.700000E-01      0.896604E-02
      0.750000E-01      0.834395E-02
      0.800000E-01      0.772520E-02
      0.850000E-01      0.711548E-02
      0.900000E-01      0.651995E-02
      0.950000E-01      0.594322E-02
      0.100000          0.538929E-02
      0.105000          0.486153E-02
      0.110000          0.436265E-02
      0.115000          0.389472E-02
      0.120000          0.345917E-02
      0.125000          0.305686E-02
      0.130000          0.268805E-02
      0.135000          0.235252E-02
      0.140000          0.204958E-02
      0.145000          0.177817E-02
      0.150000          0.153687E-02
      0.155000          0.132401E-02
      0.160000          0.113774E-02
      0.165000          0.976048E-03
      0.170000          0.836832E-03
      0.175000          0.717974E-03
      0.180000          0.617364E-03
      0.185000          0.532947E-03
      0.190000          0.462752E-03
      0.195000          0.404917E-03
      0.200000          0.357715E-03
      0.205000          0.319557E-03
      0.210000          0.289008E-03
      0.215000          0.264785E-03
      0.220000          0.245755E-03
      0.225000          0.230933E-03
      0.230000          0.219469E-03
      0.235000          0.210641E-03
      0.240000          0.203844E-03
      0.245000          0.198575E-03
      0.250000          0.194422E-03
      0.255000          0.191053E-03
      0.260000          0.188204E-03
      0.265000          0.185666E-03
      0.270000          0.183278E-03
      0.275000          0.180920E-03
      0.280000          0.178500E-03
      0.285000          0.175953E-03
      0.290000          0.173235E-03
      0.295000          0.170317E-03
      0.300000          0.167183E-03
      0.305000          0.163829E-03
      0.310000          0.160257E-03
      0.315000          0.156476E-03
      0.320000          0.152502E-03
      0.325000          0.148355E-03
      0.330000          0.144058E-03
      0.335000          0.139637E-03
      0.340000          0.135121E-03
      0.345000          0.130541E-03
      0.350000          0.125926E-03
      0.355000          0.121309E-03
      0.360000          0.116722E-03
      0.365000          0.112193E-03
      0.370000          0.107754E-03
      0.375000          0.103430E-03
      0.380000          0.992473E-04
      0.385000          0.952281E-04
      0.390000          0.913920E-04
      0.395000          0.877560E-04
      0.400000          0.843336E-04
      0.405000          0.811357E-04
      0.410000          0.781698E-04
      0.415000          0.754409E-04
      0.420000          0.729511E-04
      0.425000          0.706999E-04
      0.430000          0.686848E-04
      0.435000          0.669011E-04
      0.440000          0.653421E-04
      0.445000          0.639998E-04
      0.450000          0.628647E-04
      0.455000          0.619261E-04
      0.460000          0.611726E-04
      0.465000          0.605918E-04
      0.470000          0.601709E-04
      0.475000          0.598967E-04
      0.480000          0.597556E-04
      0.485000          0.597343E-04
      0.490000          0.598192E-04
      0.495000          0.599971E-04
      0.500000          0.602552E-04
