 I_abs(s)[cm^-1]/c[mg/ml]
       0.00000          0.145634E-01
      0.500000E-02      0.145246E-01
      0.100000E-01      0.144087E-01
      0.150000E-01      0.142176E-01
      0.200000E-01      0.139541E-01
      0.250000E-01      0.136222E-01
      0.300000E-01      0.132269E-01
      0.350000E-01      0.127740E-01
      0.400000E-01      0.122700E-01
      0.450000E-01      0.117221E-01
      0.500000E-01      0.111378E-01
      0.550000E-01      0.105248E-01
      0.600000E-01      0.989124E-02
      0.650000E-01      0.924475E-02
      0.700000E-01      0.859301E-02
      0.750000E-01      0.794326E-02
      0.800000E-01      0.730228E-02
      0.850000E-01      0.667623E-02
      0.900000E-01      0.607062E-02
      0.950000E-01      0.549021E-02
      0.100000          0.493897E-02
      0.105000          0.442007E-02
      0.110000          0.393585E-02
      0.115000          0.348788E-02
      0.120000          0.307699E-02
      0.125000          0.270328E-02
      0.130000          0.236624E-02
      0.135000          0.206481E-02
      0.140000          0.179745E-02
      0.145000          0.156222E-02
      0.150000          0.135691E-02
      0.155000          0.117909E-02
      0.160000          0.102619E-02
      0.165000          0.895607E-03
      0.170000          0.784744E-03
      0.175000          0.691084E-03
      0.180000          0.612234E-03
      0.185000          0.545968E-03
      0.190000          0.490254E-03
      0.195000          0.443272E-03
      0.200000          0.403425E-03
      0.205000          0.369341E-03
      0.210000          0.339865E-03
      0.215000          0.314051E-03
      0.220000          0.291138E-03
      0.225000          0.270540E-03
      0.230000          0.251814E-03
      0.235000          0.234643E-03
      0.240000          0.218810E-03
      0.245000          0.204179E-03
      0.250000          0.190669E-03
      0.255000          0.178240E-03
      0.260000          0.166877E-03
      0.265000          0.156575E-03
      0.270000          0.147330E-03
      0.275000          0.139133E-03
      0.280000          0.131963E-03
      0.285000          0.125785E-03
      0.290000          0.120550E-03
      0.295000          0.116198E-03
      0.300000          0.112653E-03
      0.305000          0.109836E-03
      0.310000          0.107659E-03
      0.315000          0.106035E-03
      0.320000          0.104876E-03
      0.325000          0.104099E-03
      0.330000          0.103630E-03
      0.335000          0.103400E-03
      0.340000          0.103351E-03
      0.345000          0.103435E-03
      0.350000          0.103614E-03
      0.355000          0.103858E-03
      0.360000          0.104145E-03
      0.365000          0.104461E-03
      0.370000          0.104796E-03
      0.375000          0.105144E-03
      0.380000          0.105502E-03
      0.385000          0.105866E-03
      0.390000          0.106232E-03
      0.395000          0.106597E-03
      0.400000          0.106953E-03
      0.405000          0.107290E-03
      0.410000          0.107597E-03
      0.415000          0.107859E-03
      0.420000          0.108060E-03
      0.425000          0.108182E-03
      0.430000          0.108207E-03
      0.435000          0.108116E-03
      0.440000          0.107892E-03
      0.445000          0.107520E-03
      0.450000          0.106987E-03
      0.455000          0.106281E-03
      0.460000          0.105397E-03
      0.465000          0.104332E-03
      0.470000          0.103088E-03
      0.475000          0.101671E-03
      0.480000          0.100091E-03
      0.485000          0.983605E-04
      0.490000          0.964983E-04
      0.495000          0.945243E-04
      0.500000          0.924612E-04
