 I_abs(s)[cm^-1]/c[mg/ml]
       0.00000          0.147465E-01
      0.500000E-02      0.147076E-01
      0.100000E-01      0.145912E-01
      0.150000E-01      0.143992E-01
      0.200000E-01      0.141345E-01
      0.250000E-01      0.138010E-01
      0.300000E-01      0.134036E-01
      0.350000E-01      0.129482E-01
      0.400000E-01      0.124412E-01
      0.450000E-01      0.118896E-01
      0.500000E-01      0.113011E-01
      0.550000E-01      0.106832E-01
      0.600000E-01      0.100438E-01
      0.650000E-01      0.939067E-02
      0.700000E-01      0.873138E-02
      0.750000E-01      0.807309E-02
      0.800000E-01      0.742254E-02
      0.850000E-01      0.678588E-02
      0.900000E-01      0.616860E-02
      0.950000E-01      0.557548E-02
      0.100000          0.501054E-02
      0.105000          0.447702E-02
      0.110000          0.397739E-02
      0.115000          0.351337E-02
      0.120000          0.308596E-02
      0.125000          0.269547E-02
      0.130000          0.234163E-02
      0.135000          0.202363E-02
      0.140000          0.174019E-02
      0.145000          0.148967E-02
      0.150000          0.127011E-02
      0.155000          0.107935E-02
      0.160000          0.915062E-03
      0.165000          0.774849E-03
      0.170000          0.656294E-03
      0.175000          0.557014E-03
      0.180000          0.474704E-03
      0.185000          0.407176E-03
      0.190000          0.352379E-03
      0.195000          0.308429E-03
      0.200000          0.273611E-03
      0.205000          0.246391E-03
      0.210000          0.225410E-03
      0.215000          0.209485E-03
      0.220000          0.197597E-03
      0.225000          0.188878E-03
      0.230000          0.182603E-03
      0.235000          0.178169E-03
      0.240000          0.175086E-03
      0.245000          0.172961E-03
      0.250000          0.171484E-03
      0.255000          0.170412E-03
      0.260000          0.169565E-03
      0.265000          0.168809E-03
      0.270000          0.168047E-03
      0.275000          0.167217E-03
      0.280000          0.166278E-03
      0.285000          0.165211E-03
      0.290000          0.164008E-03
      0.295000          0.162674E-03
      0.300000          0.161219E-03
      0.305000          0.159659E-03
      0.310000          0.158012E-03
      0.315000          0.156295E-03
      0.320000          0.154526E-03
      0.325000          0.152720E-03
      0.330000          0.150889E-03
      0.335000          0.149044E-03
      0.340000          0.147190E-03
      0.345000          0.145329E-03
      0.350000          0.143461E-03
      0.355000          0.141583E-03
      0.360000          0.139688E-03
      0.365000          0.137769E-03
      0.370000          0.135819E-03
      0.375000          0.133829E-03
      0.380000          0.131792E-03
      0.385000          0.129702E-03
      0.390000          0.127557E-03
      0.395000          0.125354E-03
      0.400000          0.123097E-03
      0.405000          0.120791E-03
      0.410000          0.118446E-03
      0.415000          0.116074E-03
      0.420000          0.113690E-03
      0.425000          0.111311E-03
      0.430000          0.108957E-03
      0.435000          0.106646E-03
      0.440000          0.104400E-03
      0.445000          0.102238E-03
      0.450000          0.100178E-03
      0.455000          0.982359E-04
      0.460000          0.964263E-04
      0.465000          0.947596E-04
      0.470000          0.932432E-04
      0.475000          0.918810E-04
      0.480000          0.906735E-04
      0.485000          0.896175E-04
      0.490000          0.887069E-04
      0.495000          0.879326E-04
      0.500000          0.872833E-04
