 I_abs(s)[cm^-1]/c[mg/ml]
       0.00000          0.135960E-01
      0.500000E-02      0.134778E-01
      0.100000E-01      0.131308E-01
      0.150000E-01      0.125769E-01
      0.200000E-01      0.118503E-01
      0.250000E-01      0.109940E-01
      0.300000E-01      0.100560E-01
      0.350000E-01      0.908511E-02
      0.400000E-01      0.812636E-02
      0.450000E-01      0.721798E-02
      0.500000E-01      0.638870E-02
      0.550000E-01      0.565650E-02
      0.600000E-01      0.502850E-02
      0.650000E-01      0.450208E-02
      0.700000E-01      0.406685E-02
      0.750000E-01      0.370718E-02
      0.800000E-01      0.340500E-02
      0.850000E-01      0.314242E-02
      0.900000E-01      0.290386E-02
      0.950000E-01      0.267755E-02
      0.100000          0.245629E-02
      0.105000          0.223738E-02
      0.110000          0.202200E-02
      0.115000          0.181405E-02
      0.120000          0.161880E-02
      0.125000          0.144163E-02
      0.130000          0.128682E-02
      0.135000          0.115682E-02
      0.140000          0.105185E-02
      0.145000          0.970012E-03
      0.150000          0.907649E-03
      0.155000          0.860016E-03
      0.160000          0.822025E-03
      0.165000          0.788965E-03
      0.170000          0.757079E-03
      0.175000          0.723924E-03
      0.180000          0.688474E-03
      0.185000          0.650996E-03
      0.190000          0.612733E-03
      0.195000          0.575473E-03
      0.200000          0.541101E-03
      0.205000          0.511181E-03
      0.210000          0.486666E-03
      0.215000          0.467742E-03
      0.220000          0.453831E-03
      0.225000          0.443723E-03
      0.230000          0.435812E-03
      0.235000          0.428374E-03
      0.240000          0.419840E-03
      0.245000          0.409028E-03
      0.250000          0.395286E-03
      0.255000          0.378544E-03
      0.260000          0.359277E-03
      0.265000          0.338379E-03
      0.270000          0.316999E-03
      0.275000          0.296347E-03
      0.280000          0.277520E-03
      0.285000          0.261353E-03
      0.290000          0.248331E-03
      0.295000          0.238556E-03
      0.300000          0.231770E-03
      0.305000          0.227424E-03
      0.310000          0.224780E-03
      0.315000          0.223022E-03
      0.320000          0.221365E-03
      0.325000          0.219147E-03
      0.330000          0.215895E-03
      0.335000          0.211358E-03
      0.340000          0.205505E-03
      0.345000          0.198506E-03
      0.350000          0.190685E-03
      0.355000          0.182461E-03
      0.360000          0.174284E-03
      0.365000          0.166584E-03
      0.370000          0.159713E-03
      0.375000          0.153917E-03
      0.380000          0.149311E-03
      0.385000          0.145879E-03
      0.390000          0.143484E-03
      0.395000          0.141895E-03
      0.400000          0.140818E-03
      0.405000          0.139939E-03
      0.410000          0.138956E-03
      0.415000          0.137621E-03
      0.420000          0.135761E-03
      0.425000          0.133293E-03
      0.430000          0.130233E-03
      0.435000          0.126680E-03
      0.440000          0.122799E-03
      0.445000          0.118796E-03
      0.450000          0.114880E-03
      0.455000          0.111242E-03
      0.460000          0.108023E-03
      0.465000          0.105298E-03
      0.470000          0.103073E-03
      0.475000          0.101288E-03
      0.480000          0.998319E-04
      0.485000          0.985619E-04
      0.490000          0.973319E-04
      0.495000          0.960149E-04
      0.500000          0.945234E-04
