 I_abs(s)[cm^-1]/c[mg/ml]
       0.00000          0.138705E-01
      0.500000E-02      0.138117E-01
      0.100000E-01      0.136366E-01
      0.150000E-01      0.133498E-01
      0.200000E-01      0.129584E-01
      0.250000E-01      0.124723E-01
      0.300000E-01      0.119031E-01
      0.350000E-01      0.112645E-01
      0.400000E-01      0.105714E-01
      0.450000E-01      0.983902E-02
      0.500000E-01      0.908313E-02
      0.550000E-01      0.831897E-02
      0.600000E-01      0.756096E-02
      0.650000E-01      0.682228E-02
      0.700000E-01      0.611449E-02
      0.750000E-01      0.544728E-02
      0.800000E-01      0.482825E-02
      0.850000E-01      0.426289E-02
      0.900000E-01      0.375454E-02
      0.950000E-01      0.330450E-02
      0.100000          0.291216E-02
      0.105000          0.257528E-02
      0.110000          0.229023E-02
      0.115000          0.205231E-02
      0.120000          0.185604E-02
      0.125000          0.169553E-02
      0.130000          0.156472E-02
      0.135000          0.145770E-02
      0.140000          0.136892E-02
      0.145000          0.129336E-02
      0.150000          0.122670E-02
      0.155000          0.116539E-02
      0.160000          0.110668E-02
      0.165000          0.104860E-02
      0.170000          0.989951E-03
      0.175000          0.930171E-03
      0.180000          0.869265E-03
      0.185000          0.807676E-03
      0.190000          0.746160E-03
      0.195000          0.685662E-03
      0.200000          0.627201E-03
      0.205000          0.571770E-03
      0.210000          0.520254E-03
      0.215000          0.473366E-03
      0.220000          0.431604E-03
      0.225000          0.395237E-03
      0.230000          0.364296E-03
      0.235000          0.338594E-03
      0.240000          0.317753E-03
      0.245000          0.301244E-03
      0.250000          0.288429E-03
      0.255000          0.278604E-03
      0.260000          0.271052E-03
      0.265000          0.265077E-03
      0.270000          0.260042E-03
      0.275000          0.255393E-03
      0.280000          0.250685E-03
      0.285000          0.245584E-03
      0.290000          0.239876E-03
      0.295000          0.233455E-03
      0.300000          0.226319E-03
      0.305000          0.218549E-03
      0.310000          0.210291E-03
      0.315000          0.201739E-03
      0.320000          0.193106E-03
      0.325000          0.184615E-03
      0.330000          0.176473E-03
      0.335000          0.168864E-03
      0.340000          0.161931E-03
      0.345000          0.155778E-03
      0.350000          0.150459E-03
      0.355000          0.145984E-03
      0.360000          0.142320E-03
      0.365000          0.139396E-03
      0.370000          0.137115E-03
      0.375000          0.135358E-03
      0.380000          0.133995E-03
      0.385000          0.132896E-03
      0.390000          0.131934E-03
      0.395000          0.130999E-03
      0.400000          0.129998E-03
      0.405000          0.128861E-03
      0.410000          0.127542E-03
      0.415000          0.126021E-03
      0.420000          0.124300E-03
      0.425000          0.122402E-03
      0.430000          0.120369E-03
      0.435000          0.118252E-03
      0.440000          0.116112E-03
      0.445000          0.114011E-03
      0.450000          0.112010E-03
      0.455000          0.110160E-03
      0.460000          0.108505E-03
      0.465000          0.107076E-03
      0.470000          0.105886E-03
      0.475000          0.104938E-03
      0.480000          0.104217E-03
      0.485000          0.103693E-03
      0.490000          0.103329E-03
      0.495000          0.103076E-03
      0.500000          0.102879E-03
