 I_abs(s)[cm^-1]/c[mg/ml]
       0.00000          0.146240E-01
      0.500000E-02      0.145853E-01
      0.100000E-01      0.144699E-01
      0.150000E-01      0.142795E-01
      0.200000E-01      0.140170E-01
      0.250000E-01      0.136865E-01
      0.300000E-01      0.132929E-01
      0.350000E-01      0.128422E-01
      0.400000E-01      0.123408E-01
      0.450000E-01      0.117958E-01
      0.500000E-01      0.112147E-01
      0.550000E-01      0.106053E-01
      0.600000E-01      0.997533E-02
      0.650000E-01      0.933247E-02
      0.700000E-01      0.868416E-02
      0.750000E-01      0.803746E-02
      0.800000E-01      0.739891E-02
      0.850000E-01      0.677446E-02
      0.900000E-01      0.616940E-02
      0.950000E-01      0.558826E-02
      0.100000          0.503484E-02
      0.105000          0.451214E-02
      0.110000          0.402243E-02
      0.115000          0.356723E-02
      0.120000          0.314738E-02
      0.125000          0.276309E-02
      0.130000          0.241401E-02
      0.135000          0.209928E-02
      0.140000          0.181764E-02
      0.145000          0.156752E-02
      0.150000          0.134704E-02
      0.155000          0.115418E-02
      0.160000          0.986778E-03
      0.165000          0.842622E-03
      0.170000          0.719495E-03
      0.175000          0.615220E-03
      0.180000          0.527696E-03
      0.185000          0.454927E-03
      0.190000          0.395043E-03
      0.195000          0.346312E-03
      0.200000          0.307148E-03
      0.205000          0.276114E-03
      0.210000          0.251920E-03
      0.215000          0.233419E-03
      0.220000          0.219596E-03
      0.225000          0.209563E-03
      0.230000          0.202548E-03
      0.235000          0.197885E-03
      0.240000          0.195003E-03
      0.245000          0.193418E-03
      0.250000          0.192724E-03
      0.255000          0.192584E-03
      0.260000          0.192723E-03
      0.265000          0.192921E-03
      0.270000          0.193007E-03
      0.275000          0.192855E-03
      0.280000          0.192373E-03
      0.285000          0.191505E-03
      0.290000          0.190221E-03
      0.295000          0.188518E-03
      0.300000          0.186407E-03
      0.305000          0.183919E-03
      0.310000          0.181091E-03
      0.315000          0.177971E-03
      0.320000          0.174609E-03
      0.325000          0.171058E-03
      0.330000          0.167367E-03
      0.335000          0.163584E-03
      0.340000          0.159749E-03
      0.345000          0.155898E-03
      0.350000          0.152061E-03
      0.355000          0.148259E-03
      0.360000          0.144509E-03
      0.365000          0.140819E-03
      0.370000          0.137197E-03
      0.375000          0.133642E-03
      0.380000          0.130154E-03
      0.385000          0.126730E-03
      0.390000          0.123367E-03
      0.395000          0.120061E-03
      0.400000          0.116813E-03
      0.405000          0.113621E-03
      0.410000          0.110490E-03
      0.415000          0.107425E-03
      0.420000          0.104434E-03
      0.425000          0.101527E-03
      0.430000          0.987168E-04
      0.435000          0.960161E-04
      0.440000          0.934393E-04
      0.445000          0.910002E-04
      0.450000          0.887123E-04
      0.455000          0.865880E-04
      0.460000          0.846374E-04
      0.465000          0.828690E-04
      0.470000          0.812883E-04
      0.475000          0.798983E-04
      0.480000          0.786991E-04
      0.485000          0.776881E-04
      0.490000          0.768600E-04
      0.495000          0.762073E-04
      0.500000          0.757203E-04
