 I_abs(s)[cm^-1]/c[mg/ml]
       0.00000          0.143234E-01
      0.500000E-02      0.142758E-01
      0.100000E-01      0.141341E-01
      0.150000E-01      0.139011E-01
      0.200000E-01      0.135817E-01
      0.250000E-01      0.131822E-01
      0.300000E-01      0.127106E-01
      0.350000E-01      0.121761E-01
      0.400000E-01      0.115887E-01
      0.450000E-01      0.109592E-01
      0.500000E-01      0.102986E-01
      0.550000E-01      0.961801E-02
      0.600000E-01      0.892810E-02
      0.650000E-01      0.823908E-02
      0.700000E-01      0.756032E-02
      0.750000E-01      0.690019E-02
      0.800000E-01      0.626588E-02
      0.850000E-01      0.566335E-02
      0.900000E-01      0.509726E-02
      0.950000E-01      0.457092E-02
      0.100000          0.408643E-02
      0.105000          0.364466E-02
      0.110000          0.324544E-02
      0.115000          0.288766E-02
      0.120000          0.256944E-02
      0.125000          0.228831E-02
      0.130000          0.204132E-02
      0.135000          0.182528E-02
      0.140000          0.163685E-02
      0.145000          0.147270E-02
      0.150000          0.132959E-02
      0.155000          0.120451E-02
      0.160000          0.109470E-02
      0.165000          0.997725E-03
      0.170000          0.911468E-03
      0.175000          0.834159E-03
      0.180000          0.764353E-03
      0.185000          0.700901E-03
      0.190000          0.642921E-03
      0.195000          0.589755E-03
      0.200000          0.540928E-03
      0.205000          0.496103E-03
      0.210000          0.455040E-03
      0.215000          0.417565E-03
      0.220000          0.383534E-03
      0.225000          0.352812E-03
      0.230000          0.325257E-03
      0.235000          0.300705E-03
      0.240000          0.278967E-03
      0.245000          0.259829E-03
      0.250000          0.243052E-03
      0.255000          0.228383E-03
      0.260000          0.215559E-03
      0.265000          0.204317E-03
      0.270000          0.194403E-03
      0.275000          0.185579E-03
      0.280000          0.177630E-03
      0.285000          0.170371E-03
      0.290000          0.163645E-03
      0.295000          0.157330E-03
      0.300000          0.151333E-03
      0.305000          0.145594E-03
      0.310000          0.140079E-03
      0.315000          0.134775E-03
      0.320000          0.129691E-03
      0.325000          0.124845E-03
      0.330000          0.120266E-03
      0.335000          0.115987E-03
      0.340000          0.112040E-03
      0.345000          0.108453E-03
      0.350000          0.105249E-03
      0.355000          0.102442E-03
      0.360000          0.100037E-03
      0.365000          0.980267E-04
      0.370000          0.963972E-04
      0.375000          0.951239E-04
      0.380000          0.941749E-04
      0.385000          0.935118E-04
      0.390000          0.930922E-04
      0.395000          0.928710E-04
      0.400000          0.928026E-04
      0.405000          0.928424E-04
      0.410000          0.929490E-04
      0.415000          0.930848E-04
      0.420000          0.932177E-04
      0.425000          0.933215E-04
      0.430000          0.933760E-04
      0.435000          0.933677E-04
      0.440000          0.932889E-04
      0.445000          0.931373E-04
      0.450000          0.929153E-04
      0.455000          0.926287E-04
      0.460000          0.922862E-04
      0.465000          0.918978E-04
      0.470000          0.914739E-04
      0.475000          0.910245E-04
      0.480000          0.905584E-04
      0.485000          0.900824E-04
      0.490000          0.896015E-04
      0.495000          0.891181E-04
      0.500000          0.886328E-04
