 I_abs(s)[cm^-1]/c[mg/ml]
       0.00000          0.145050E-01
      0.500000E-02      0.144501E-01
      0.100000E-01      0.142867E-01
      0.150000E-01      0.140184E-01
      0.200000E-01      0.136514E-01
      0.250000E-01      0.131938E-01
      0.300000E-01      0.126557E-01
      0.350000E-01      0.120485E-01
      0.400000E-01      0.113848E-01
      0.450000E-01      0.106780E-01
      0.500000E-01      0.994159E-02
      0.550000E-01      0.918898E-02
      0.600000E-01      0.843306E-02
      0.650000E-01      0.768582E-02
      0.700000E-01      0.695810E-02
      0.750000E-01      0.625930E-02
      0.800000E-01      0.559729E-02
      0.850000E-01      0.497824E-02
      0.900000E-01      0.440666E-02
      0.950000E-01      0.388538E-02
      0.100000          0.341568E-02
      0.105000          0.299743E-02
      0.110000          0.262926E-02
      0.115000          0.230875E-02
      0.120000          0.203268E-02
      0.125000          0.179725E-02
      0.130000          0.159825E-02
      0.135000          0.143132E-02
      0.140000          0.129209E-02
      0.145000          0.117632E-02
      0.150000          0.108007E-02
      0.155000          0.999711E-03
      0.160000          0.932062E-03
      0.165000          0.874360E-03
      0.170000          0.824291E-03
      0.175000          0.779967E-03
      0.180000          0.739894E-03
      0.185000          0.702932E-03
      0.190000          0.668242E-03
      0.195000          0.635235E-03
      0.200000          0.603523E-03
      0.205000          0.572871E-03
      0.210000          0.543154E-03
      0.215000          0.514328E-03
      0.220000          0.486394E-03
      0.225000          0.459386E-03
      0.230000          0.433351E-03
      0.235000          0.408343E-03
      0.240000          0.384415E-03
      0.245000          0.361618E-03
      0.250000          0.340002E-03
      0.255000          0.319613E-03
      0.260000          0.300492E-03
      0.265000          0.282678E-03
      0.270000          0.266204E-03
      0.275000          0.251093E-03
      0.280000          0.237360E-03
      0.285000          0.225004E-03
      0.290000          0.214006E-03
      0.295000          0.204328E-03
      0.300000          0.195910E-03
      0.305000          0.188671E-03
      0.310000          0.182509E-03
      0.315000          0.177301E-03
      0.320000          0.172912E-03
      0.325000          0.169194E-03
      0.330000          0.165996E-03
      0.335000          0.163165E-03
      0.340000          0.160558E-03
      0.345000          0.158042E-03
      0.350000          0.155504E-03
      0.355000          0.152849E-03
      0.360000          0.150009E-03
      0.365000          0.146940E-03
      0.370000          0.143623E-03
      0.375000          0.140065E-03
      0.380000          0.136292E-03
      0.385000          0.132350E-03
      0.390000          0.128299E-03
      0.395000          0.124207E-03
      0.400000          0.120149E-03
      0.405000          0.116198E-03
      0.410000          0.112425E-03
      0.415000          0.108891E-03
      0.420000          0.105650E-03
      0.425000          0.102740E-03
      0.430000          0.100188E-03
      0.435000          0.980044E-04
      0.440000          0.961885E-04
      0.445000          0.947254E-04
      0.450000          0.935893E-04
      0.455000          0.927456E-04
      0.460000          0.921529E-04
      0.465000          0.917651E-04
      0.470000          0.915341E-04
      0.475000          0.914119E-04
      0.480000          0.913525E-04
      0.485000          0.913135E-04
      0.490000          0.912575E-04
      0.495000          0.911532E-04
      0.500000          0.909757E-04
