 I_abs(s)[cm^-1]/c[mg/ml]
       0.00000          0.141429E-01
      0.500000E-02      0.140849E-01
      0.100000E-01      0.139123E-01
      0.150000E-01      0.136299E-01
      0.200000E-01      0.132453E-01
      0.250000E-01      0.127686E-01
      0.300000E-01      0.122122E-01
      0.350000E-01      0.115900E-01
      0.400000E-01      0.109168E-01
      0.450000E-01      0.102080E-01
      0.500000E-01      0.947883E-02
      0.550000E-01      0.874367E-02
      0.600000E-01      0.801586E-02
      0.650000E-01      0.730712E-02
      0.700000E-01      0.662736E-02
      0.750000E-01      0.598445E-02
      0.800000E-01      0.538419E-02
      0.850000E-01      0.483036E-02
      0.900000E-01      0.432482E-02
      0.950000E-01      0.386776E-02
      0.100000          0.345793E-02
      0.105000          0.309293E-02
      0.110000          0.276957E-02
      0.115000          0.248410E-02
      0.120000          0.223254E-02
      0.125000          0.201088E-02
      0.130000          0.181529E-02
      0.135000          0.164226E-02
      0.140000          0.148870E-02
      0.145000          0.135193E-02
      0.150000          0.122976E-02
      0.155000          0.112038E-02
      0.160000          0.102235E-02
      0.165000          0.934534E-03
      0.170000          0.855986E-03
      0.175000          0.785914E-03
      0.180000          0.723610E-03
      0.185000          0.668401E-03
      0.190000          0.619616E-03
      0.195000          0.576579E-03
      0.200000          0.538599E-03
      0.205000          0.504983E-03
      0.210000          0.475057E-03
      0.215000          0.448183E-03
      0.220000          0.423784E-03
      0.225000          0.401359E-03
      0.230000          0.380499E-03
      0.235000          0.360894E-03
      0.240000          0.342325E-03
      0.245000          0.324666E-03
      0.250000          0.307860E-03
      0.255000          0.291906E-03
      0.260000          0.276839E-03
      0.265000          0.262710E-03
      0.270000          0.249564E-03
      0.275000          0.237431E-03
      0.280000          0.226315E-03
      0.285000          0.216184E-03
      0.290000          0.206977E-03
      0.295000          0.198604E-03
      0.300000          0.190952E-03
      0.305000          0.183900E-03
      0.310000          0.177326E-03
      0.315000          0.171116E-03
      0.320000          0.165179E-03
      0.325000          0.159445E-03
      0.330000          0.153874E-03
      0.335000          0.148459E-03
      0.340000          0.143215E-03
      0.345000          0.138183E-03
      0.350000          0.133421E-03
      0.355000          0.128993E-03
      0.360000          0.124964E-03
      0.365000          0.121394E-03
      0.370000          0.118328E-03
      0.375000          0.115794E-03
      0.380000          0.113798E-03
      0.385000          0.112326E-03
      0.390000          0.111341E-03
      0.395000          0.110791E-03
      0.400000          0.110607E-03
      0.405000          0.110713E-03
      0.410000          0.111027E-03
      0.415000          0.111470E-03
      0.420000          0.111966E-03
      0.425000          0.112449E-03
      0.430000          0.112865E-03
      0.435000          0.113171E-03
      0.440000          0.113341E-03
      0.445000          0.113356E-03
      0.450000          0.113213E-03
      0.455000          0.112915E-03
      0.460000          0.112472E-03
      0.465000          0.111897E-03
      0.470000          0.111206E-03
      0.475000          0.110414E-03
      0.480000          0.109533E-03
      0.485000          0.108574E-03
      0.490000          0.107542E-03
      0.495000          0.106442E-03
      0.500000          0.105276E-03
