 I_abs(s)[cm^-1]/c[mg/ml]
       0.00000          0.146877E-01
      0.500000E-02      0.146533E-01
      0.100000E-01      0.145506E-01
      0.150000E-01      0.143807E-01
      0.200000E-01      0.141460E-01
      0.250000E-01      0.138494E-01
      0.300000E-01      0.134946E-01
      0.350000E-01      0.130860E-01
      0.400000E-01      0.126285E-01
      0.450000E-01      0.121278E-01
      0.500000E-01      0.115896E-01
      0.550000E-01      0.110202E-01
      0.600000E-01      0.104259E-01
      0.650000E-01      0.981326E-02
      0.700000E-01      0.918867E-02
      0.750000E-01      0.855845E-02
      0.800000E-01      0.792865E-02
      0.850000E-01      0.730502E-02
      0.900000E-01      0.669293E-02
      0.950000E-01      0.609726E-02
      0.100000          0.552238E-02
      0.105000          0.497208E-02
      0.110000          0.444959E-02
      0.115000          0.395749E-02
      0.120000          0.349779E-02
      0.125000          0.307187E-02
      0.130000          0.268053E-02
      0.135000          0.232404E-02
      0.140000          0.200214E-02
      0.145000          0.171412E-02
      0.150000          0.145884E-02
      0.155000          0.123485E-02
      0.160000          0.104036E-02
      0.165000          0.873373E-03
      0.170000          0.731721E-03
      0.175000          0.613117E-03
      0.180000          0.515215E-03
      0.185000          0.435665E-03
      0.190000          0.372153E-03
      0.195000          0.322443E-03
      0.200000          0.284414E-03
      0.205000          0.256082E-03
      0.210000          0.235627E-03
      0.215000          0.221403E-03
      0.220000          0.211952E-03
      0.225000          0.206003E-03
      0.230000          0.202475E-03
      0.235000          0.200466E-03
      0.240000          0.199249E-03
      0.245000          0.198255E-03
      0.250000          0.197063E-03
      0.255000          0.195378E-03
      0.260000          0.193019E-03
      0.265000          0.189896E-03
      0.270000          0.186001E-03
      0.275000          0.181381E-03
      0.280000          0.176131E-03
      0.285000          0.170374E-03
      0.290000          0.164254E-03
      0.295000          0.157920E-03
      0.300000          0.151520E-03
      0.305000          0.145191E-03
      0.310000          0.139060E-03
      0.315000          0.133232E-03
      0.320000          0.127792E-03
      0.325000          0.122805E-03
      0.330000          0.118313E-03
      0.335000          0.114340E-03
      0.340000          0.110890E-03
      0.345000          0.107950E-03
      0.350000          0.105495E-03
      0.355000          0.103488E-03
      0.360000          0.101886E-03
      0.365000          0.100639E-03
      0.370000          0.996941E-04
      0.375000          0.989988E-04
      0.380000          0.985015E-04
      0.385000          0.981539E-04
      0.390000          0.979118E-04
      0.395000          0.977359E-04
      0.400000          0.975926E-04
      0.405000          0.974542E-04
      0.410000          0.972987E-04
      0.415000          0.971098E-04
      0.420000          0.968763E-04
      0.425000          0.965914E-04
      0.430000          0.962527E-04
      0.435000          0.958608E-04
      0.440000          0.954191E-04
      0.445000          0.949328E-04
      0.450000          0.944085E-04
      0.455000          0.938537E-04
      0.460000          0.932761E-04
      0.465000          0.926830E-04
      0.470000          0.920816E-04
      0.475000          0.914779E-04
      0.480000          0.908772E-04
      0.485000          0.902836E-04
      0.490000          0.897001E-04
      0.495000          0.891285E-04
      0.500000          0.885695E-04
