 I_abs(s)[cm^-1]/c[mg/ml]
       0.00000          0.138164E-01
      0.500000E-02      0.137418E-01
      0.100000E-01      0.135208E-01
      0.150000E-01      0.131619E-01
      0.200000E-01      0.126782E-01
      0.250000E-01      0.120872E-01
      0.300000E-01      0.114095E-01
      0.350000E-01      0.106675E-01
      0.400000E-01      0.988418E-02
      0.450000E-01      0.908210E-02
      0.500000E-01      0.828201E-02
      0.550000E-01      0.750213E-02
      0.600000E-01      0.675747E-02
      0.650000E-01      0.605947E-02
      0.700000E-01      0.541593E-02
      0.750000E-01      0.483114E-02
      0.800000E-01      0.430626E-02
      0.850000E-01      0.383986E-02
      0.900000E-01      0.342853E-02
      0.950000E-01      0.306752E-02
      0.100000          0.275135E-02
      0.105000          0.247432E-02
      0.110000          0.223098E-02
      0.115000          0.201641E-02
      0.120000          0.182638E-02
      0.125000          0.165742E-02
      0.130000          0.150675E-02
      0.135000          0.137224E-02
      0.140000          0.125219E-02
      0.145000          0.114524E-02
      0.150000          0.105022E-02
      0.155000          0.966024E-03
      0.160000          0.891554E-03
      0.165000          0.825710E-03
      0.170000          0.767378E-03
      0.175000          0.715473E-03
      0.180000          0.668983E-03
      0.185000          0.627013E-03
      0.190000          0.588824E-03
      0.195000          0.553855E-03
      0.200000          0.521716E-03
      0.205000          0.492173E-03
      0.210000          0.465110E-03
      0.215000          0.440476E-03
      0.220000          0.418244E-03
      0.225000          0.398356E-03
      0.230000          0.380692E-03
      0.235000          0.365055E-03
      0.240000          0.351159E-03
      0.245000          0.338651E-03
      0.250000          0.327133E-03
      0.255000          0.316196E-03
      0.260000          0.305466E-03
      0.265000          0.294628E-03
      0.270000          0.283467E-03
      0.275000          0.271876E-03
      0.280000          0.259866E-03
      0.285000          0.247557E-03
      0.290000          0.235158E-03
      0.295000          0.222940E-03
      0.300000          0.211203E-03
      0.305000          0.200245E-03
      0.310000          0.190328E-03
      0.315000          0.181654E-03
      0.320000          0.174350E-03
      0.325000          0.168459E-03
      0.330000          0.163941E-03
      0.335000          0.160681E-03
      0.340000          0.158508E-03
      0.345000          0.157207E-03
      0.350000          0.156547E-03
      0.355000          0.156294E-03
      0.360000          0.156230E-03
      0.365000          0.156170E-03
      0.370000          0.155965E-03
      0.375000          0.155508E-03
      0.380000          0.154736E-03
      0.385000          0.153621E-03
      0.390000          0.152170E-03
      0.395000          0.150411E-03
      0.400000          0.148391E-03
      0.405000          0.146162E-03
      0.410000          0.143780E-03
      0.415000          0.141296E-03
      0.420000          0.138754E-03
      0.425000          0.136191E-03
      0.430000          0.133633E-03
      0.435000          0.131099E-03
      0.440000          0.128602E-03
      0.445000          0.126150E-03
      0.450000          0.123748E-03
      0.455000          0.121400E-03
      0.460000          0.119109E-03
      0.465000          0.116882E-03
      0.470000          0.114723E-03
      0.475000          0.112638E-03
      0.480000          0.110634E-03
      0.485000          0.108717E-03
      0.490000          0.106890E-03
      0.495000          0.105155E-03
      0.500000          0.103513E-03
