 I_abs(s)[cm^-1]/c[mg/ml]
       0.00000          0.140804E-01
      0.500000E-02      0.140178E-01
      0.100000E-01      0.138316E-01
      0.150000E-01      0.135268E-01
      0.200000E-01      0.131119E-01
      0.250000E-01      0.125977E-01
      0.300000E-01      0.119978E-01
      0.350000E-01      0.113274E-01
      0.400000E-01      0.106028E-01
      0.450000E-01      0.984106E-02
      0.500000E-01      0.905901E-02
      0.550000E-01      0.827289E-02
      0.600000E-01      0.749774E-02
      0.650000E-01      0.674695E-02
      0.700000E-01      0.603190E-02
      0.750000E-01      0.536179E-02
      0.800000E-01      0.474345E-02
      0.850000E-01      0.418138E-02
      0.900000E-01      0.367784E-02
      0.950000E-01      0.323303E-02
      0.100000          0.284534E-02
      0.105000          0.251170E-02
      0.110000          0.222786E-02
      0.115000          0.198878E-02
      0.120000          0.178893E-02
      0.125000          0.162263E-02
      0.130000          0.148431E-02
      0.135000          0.136871E-02
      0.140000          0.127106E-02
      0.145000          0.118720E-02
      0.150000          0.111362E-02
      0.155000          0.104747E-02
      0.160000          0.986575E-03
      0.165000          0.929315E-03
      0.170000          0.874600E-03
      0.175000          0.821759E-03
      0.180000          0.770449E-03
      0.185000          0.720572E-03
      0.190000          0.672191E-03
      0.195000          0.625464E-03
      0.200000          0.580591E-03
      0.205000          0.537774E-03
      0.210000          0.497194E-03
      0.215000          0.458996E-03
      0.220000          0.423282E-03
      0.225000          0.390116E-03
      0.230000          0.359529E-03
      0.235000          0.331523E-03
      0.240000          0.306079E-03
      0.245000          0.283164E-03
      0.250000          0.262728E-03
      0.255000          0.244710E-03
      0.260000          0.229033E-03
      0.265000          0.215605E-03
      0.270000          0.204311E-03
      0.275000          0.195012E-03
      0.280000          0.187549E-03
      0.285000          0.181736E-03
      0.290000          0.177366E-03
      0.295000          0.174218E-03
      0.300000          0.172061E-03
      0.305000          0.170660E-03
      0.310000          0.169790E-03
      0.315000          0.169240E-03
      0.320000          0.168822E-03
      0.325000          0.168376E-03
      0.330000          0.167777E-03
      0.335000          0.166936E-03
      0.340000          0.165800E-03
      0.345000          0.164347E-03
      0.350000          0.162588E-03
      0.355000          0.160556E-03
      0.360000          0.158300E-03
      0.365000          0.155884E-03
      0.370000          0.153371E-03
      0.375000          0.150828E-03
      0.380000          0.148310E-03
      0.385000          0.145865E-03
      0.390000          0.143527E-03
      0.395000          0.141316E-03
      0.400000          0.139241E-03
      0.405000          0.137297E-03
      0.410000          0.135472E-03
      0.415000          0.133746E-03
      0.420000          0.132096E-03
      0.425000          0.130499E-03
      0.430000          0.128934E-03
      0.435000          0.127382E-03
      0.440000          0.125831E-03
      0.445000          0.124275E-03
      0.450000          0.122712E-03
      0.455000          0.121148E-03
      0.460000          0.119592E-03
      0.465000          0.118055E-03
      0.470000          0.116552E-03
      0.475000          0.115095E-03
      0.480000          0.113697E-03
      0.485000          0.112368E-03
      0.490000          0.111114E-03
      0.495000          0.109938E-03
      0.500000          0.108837E-03
