 I_abs(s)[cm^-1]/c[mg/ml]
       0.00000          0.118881E-01
      0.500000E-02      0.116714E-01
      0.100000E-01      0.110570E-01
      0.150000E-01      0.101425E-01
      0.200000E-01      0.906258E-02
      0.250000E-01      0.795664E-02
      0.300000E-01      0.693859E-02
      0.350000E-01      0.607751E-02
      0.400000E-01      0.539327E-02
      0.450000E-01      0.486573E-02
      0.500000E-01      0.445246E-02
      0.550000E-01      0.410762E-02
      0.600000E-01      0.379601E-02
      0.650000E-01      0.349919E-02
      0.700000E-01      0.321389E-02
      0.750000E-01      0.294579E-02
      0.800000E-01      0.270241E-02
      0.850000E-01      0.248804E-02
      0.900000E-01      0.230207E-02
      0.950000E-01      0.214014E-02
      0.100000          0.199659E-02
      0.105000          0.186660E-02
      0.110000          0.174715E-02
      0.115000          0.163686E-02
      0.120000          0.153509E-02
      0.125000          0.144127E-02
      0.130000          0.135458E-02
      0.135000          0.127423E-02
      0.140000          0.119973E-02
      0.145000          0.113105E-02
      0.150000          0.106843E-02
      0.155000          0.101196E-02
      0.160000          0.961255E-03
      0.165000          0.915363E-03
      0.170000          0.873004E-03
      0.175000          0.832955E-03
      0.180000          0.794370E-03
      0.185000          0.756882E-03
      0.190000          0.720471E-03
      0.195000          0.685216E-03
      0.200000          0.651092E-03
      0.205000          0.617929E-03
      0.210000          0.585510E-03
      0.215000          0.553745E-03
      0.220000          0.522770E-03
      0.225000          0.492932E-03
      0.230000          0.464657E-03
      0.235000          0.438297E-03
      0.240000          0.414026E-03
      0.245000          0.391832E-03
      0.250000          0.371594E-03
      0.255000          0.353164E-03
      0.260000          0.336410E-03
      0.265000          0.321197E-03
      0.270000          0.307334E-03
      0.275000          0.294536E-03
      0.280000          0.282442E-03
      0.285000          0.270699E-03
      0.290000          0.259062E-03
      0.295000          0.247466E-03
      0.300000          0.236031E-03
      0.305000          0.224997E-03
      0.310000          0.214617E-03
      0.315000          0.205072E-03
      0.320000          0.196421E-03
      0.325000          0.188617E-03
      0.330000          0.181564E-03
      0.335000          0.175170E-03
      0.340000          0.169377E-03
      0.345000          0.164152E-03
      0.350000          0.159459E-03
      0.355000          0.155232E-03
      0.360000          0.151366E-03
      0.365000          0.147742E-03
      0.370000          0.144262E-03
      0.375000          0.140871E-03
      0.380000          0.137562E-03
      0.385000          0.134356E-03
      0.390000          0.131269E-03
      0.395000          0.128293E-03
      0.400000          0.125393E-03
      0.405000          0.122526E-03
      0.410000          0.119659E-03
      0.415000          0.116793E-03
      0.420000          0.113959E-03
      0.425000          0.111208E-03
      0.430000          0.108599E-03
      0.435000          0.106175E-03
      0.440000          0.103956E-03
      0.445000          0.101934E-03
      0.450000          0.100070E-03
      0.455000          0.983047E-04
      0.460000          0.965719E-04
      0.465000          0.948175E-04
      0.470000          0.930183E-04
      0.475000          0.911910E-04
      0.480000          0.893853E-04
      0.485000          0.876625E-04
      0.490000          0.860668E-04
      0.495000          0.846037E-04
      0.500000          0.832331E-04
