 I_abs(s)[cm^-1]/c[mg/ml]
       0.00000          0.119456E-01
      0.500000E-02      0.117144E-01
      0.100000E-01      0.110614E-01
      0.150000E-01      0.100968E-01
      0.200000E-01      0.897204E-02
      0.250000E-01      0.784147E-02
      0.300000E-01      0.682777E-02
      0.350000E-01      0.600012E-02
      0.400000E-01      0.537016E-02
      0.450000E-01      0.490430E-02
      0.500000E-01      0.454580E-02
      0.550000E-01      0.423788E-02
      0.600000E-01      0.394045E-02
      0.650000E-01      0.363653E-02
      0.700000E-01      0.332915E-02
      0.750000E-01      0.303216E-02
      0.800000E-01      0.276028E-02
      0.850000E-01      0.252214E-02
      0.900000E-01      0.231813E-02
      0.950000E-01      0.214248E-02
      0.100000          0.198719E-02
      0.105000          0.184575E-02
      0.110000          0.171488E-02
      0.115000          0.159425E-02
      0.120000          0.148490E-02
      0.125000          0.138756E-02
      0.130000          0.130162E-02
      0.135000          0.122525E-02
      0.140000          0.115607E-02
      0.145000          0.109202E-02
      0.150000          0.103186E-02
      0.155000          0.975131E-03
      0.160000          0.921807E-03
      0.165000          0.871897E-03
      0.170000          0.825207E-03
      0.175000          0.781359E-03
      0.180000          0.739957E-03
      0.185000          0.700733E-03
      0.190000          0.663584E-03
      0.195000          0.628481E-03
      0.200000          0.595358E-03
      0.205000          0.564049E-03
      0.210000          0.534328E-03
      0.215000          0.506016E-03
      0.220000          0.479066E-03
      0.225000          0.453575E-03
      0.230000          0.429700E-03
      0.235000          0.407540E-03
      0.240000          0.387049E-03
      0.245000          0.368037E-03
      0.250000          0.350245E-03
      0.255000          0.333467E-03
      0.260000          0.317626E-03
      0.265000          0.302768E-03
      0.270000          0.288993E-03
      0.275000          0.276347E-03
      0.280000          0.264745E-03
      0.285000          0.253968E-03
      0.290000          0.243726E-03
      0.295000          0.233749E-03
      0.300000          0.223869E-03
      0.305000          0.214055E-03
      0.310000          0.204391E-03
      0.315000          0.195032E-03
      0.320000          0.186152E-03
      0.325000          0.177902E-03
      0.330000          0.170399E-03
      0.335000          0.163714E-03
      0.340000          0.157882E-03
      0.345000          0.152895E-03
      0.350000          0.148709E-03
      0.355000          0.145254E-03
      0.360000          0.142442E-03
      0.365000          0.140186E-03
      0.370000          0.138407E-03
      0.375000          0.137038E-03
      0.380000          0.136022E-03
      0.385000          0.135303E-03
      0.390000          0.134812E-03
      0.395000          0.134473E-03
      0.400000          0.134196E-03
      0.405000          0.133889E-03
      0.410000          0.133459E-03
      0.415000          0.132810E-03
      0.420000          0.131847E-03
      0.425000          0.130473E-03
      0.430000          0.128612E-03
      0.435000          0.126232E-03
      0.440000          0.123369E-03
      0.445000          0.120133E-03
      0.450000          0.116685E-03
      0.455000          0.113196E-03
      0.460000          0.109794E-03
      0.465000          0.106539E-03
      0.470000          0.103427E-03
      0.475000          0.100421E-03
      0.480000          0.974897E-04
      0.485000          0.946395E-04
      0.490000          0.919159E-04
      0.495000          0.893889E-04
      0.500000          0.871280E-04
