 I_abs(s)[cm^-1]/c[mg/ml]
       0.00000          0.118953E-01
      0.500000E-02      0.116481E-01
      0.100000E-01      0.109477E-01
      0.150000E-01      0.990659E-02
      0.200000E-01      0.868084E-02
      0.250000E-01      0.743332E-02
      0.300000E-01      0.629877E-02
      0.350000E-01      0.536043E-02
      0.400000E-01      0.464342E-02
      0.450000E-01      0.412388E-02
      0.500000E-01      0.374886E-02
      0.550000E-01      0.345874E-02
      0.600000E-01      0.320531E-02
      0.650000E-01      0.296100E-02
      0.700000E-01      0.271875E-02
      0.750000E-01      0.248539E-02
      0.800000E-01      0.227252E-02
      0.850000E-01      0.208892E-02
      0.900000E-01      0.193678E-02
      0.950000E-01      0.181186E-02
      0.100000          0.170625E-02
      0.105000          0.161188E-02
      0.110000          0.152299E-02
      0.115000          0.143708E-02
      0.120000          0.135418E-02
      0.125000          0.127555E-02
      0.130000          0.120230E-02
      0.135000          0.113463E-02
      0.140000          0.107186E-02
      0.145000          0.101279E-02
      0.150000          0.956345E-03
      0.155000          0.902037E-03
      0.160000          0.850134E-03
      0.165000          0.801519E-03
      0.170000          0.757340E-03
      0.175000          0.718562E-03
      0.180000          0.685576E-03
      0.185000          0.657969E-03
      0.190000          0.634542E-03
      0.195000          0.613571E-03
      0.200000          0.593236E-03
      0.205000          0.572082E-03
      0.210000          0.549341E-03
      0.215000          0.525011E-03
      0.220000          0.499679E-03
      0.225000          0.474178E-03
      0.230000          0.449234E-03
      0.235000          0.425251E-03
      0.240000          0.402307E-03
      0.245000          0.380312E-03
      0.250000          0.359227E-03
      0.255000          0.339207E-03
      0.260000          0.320594E-03
      0.265000          0.303771E-03
      0.270000          0.288968E-03
      0.275000          0.276123E-03
      0.280000          0.264875E-03
      0.285000          0.254698E-03
      0.290000          0.245097E-03
      0.295000          0.235780E-03
      0.300000          0.226731E-03
      0.305000          0.218147E-03
      0.310000          0.210301E-03
      0.315000          0.203379E-03
      0.320000          0.197386E-03
      0.325000          0.192136E-03
      0.330000          0.187329E-03
      0.335000          0.182673E-03
      0.340000          0.177984E-03
      0.345000          0.173229E-03
      0.350000          0.168512E-03
      0.355000          0.164004E-03
      0.360000          0.159854E-03
      0.365000          0.156133E-03
      0.370000          0.152810E-03
      0.375000          0.149778E-03
      0.380000          0.146909E-03
      0.385000          0.144113E-03
      0.390000          0.141367E-03
      0.395000          0.138706E-03
      0.400000          0.136180E-03
      0.405000          0.133793E-03
      0.410000          0.131468E-03
      0.415000          0.129042E-03
      0.420000          0.126318E-03
      0.425000          0.123146E-03
      0.430000          0.119485E-03
      0.435000          0.115442E-03
      0.440000          0.111239E-03
      0.445000          0.107132E-03
      0.450000          0.103325E-03
      0.455000          0.998985E-04
      0.460000          0.967976E-04
      0.465000          0.938795E-04
      0.470000          0.909936E-04
      0.475000          0.880578E-04
      0.480000          0.850959E-04
      0.485000          0.822223E-04
      0.490000          0.795829E-04
      0.495000          0.772841E-04
      0.500000          0.753422E-04
