 I_abs(s)[cm^-1]/c[mg/ml]
       0.00000          0.124329E-01
      0.500000E-02      0.122225E-01
      0.100000E-01      0.116236E-01
      0.150000E-01      0.107254E-01
      0.200000E-01      0.965281E-02
      0.250000E-01      0.853929E-02
      0.300000E-01      0.749913E-02
      0.350000E-01      0.660800E-02
      0.400000E-01      0.589540E-02
      0.450000E-01      0.534937E-02
      0.500000E-01      0.493043E-02
      0.550000E-01      0.458919E-02
      0.600000E-01      0.428213E-02
      0.650000E-01      0.398129E-02
      0.700000E-01      0.367666E-02
      0.750000E-01      0.337235E-02
      0.800000E-01      0.307950E-02
      0.850000E-01      0.280918E-02
      0.900000E-01      0.256782E-02
      0.950000E-01      0.235601E-02
      0.100000          0.217008E-02
      0.105000          0.200490E-02
      0.110000          0.185638E-02
      0.115000          0.172242E-02
      0.120000          0.160254E-02
      0.125000          0.149647E-02
      0.130000          0.140297E-02
      0.135000          0.131932E-02
      0.140000          0.124191E-02
      0.145000          0.116744E-02
      0.150000          0.109406E-02
      0.155000          0.102194E-02
      0.160000          0.952951E-03
      0.165000          0.889596E-03
      0.170000          0.833788E-03
      0.175000          0.785936E-03
      0.180000          0.744759E-03
      0.185000          0.707816E-03
      0.190000          0.672463E-03
      0.195000          0.636782E-03
      0.200000          0.600121E-03
      0.205000          0.563067E-03
      0.210000          0.526972E-03
      0.215000          0.493293E-03
      0.220000          0.463056E-03
      0.225000          0.436631E-03
      0.230000          0.413820E-03
      0.235000          0.394129E-03
      0.240000          0.377043E-03
      0.245000          0.362148E-03
      0.250000          0.349094E-03
      0.255000          0.337474E-03
      0.260000          0.326733E-03
      0.265000          0.316213E-03
      0.270000          0.305323E-03
      0.275000          0.293751E-03
      0.280000          0.281604E-03
      0.285000          0.269378E-03
      0.290000          0.257756E-03
      0.295000          0.247311E-03
      0.300000          0.238248E-03
      0.305000          0.230293E-03
      0.310000          0.222803E-03
      0.315000          0.215021E-03
      0.320000          0.206394E-03
      0.325000          0.196801E-03
      0.330000          0.186610E-03
      0.335000          0.176537E-03
      0.340000          0.167390E-03
      0.345000          0.159783E-03
      0.350000          0.153950E-03
      0.355000          0.149710E-03
      0.360000          0.146583E-03
      0.365000          0.143996E-03
      0.370000          0.141476E-03
      0.375000          0.138787E-03
      0.380000          0.135930E-03
      0.385000          0.133066E-03
      0.390000          0.130378E-03
      0.395000          0.127960E-03
      0.400000          0.125769E-03
      0.405000          0.123655E-03
      0.410000          0.121443E-03
      0.415000          0.119024E-03
      0.420000          0.116414E-03
      0.425000          0.113735E-03
      0.430000          0.111159E-03
      0.435000          0.108818E-03
      0.440000          0.106740E-03
      0.445000          0.104832E-03
      0.450000          0.102932E-03
      0.455000          0.100881E-03
      0.460000          0.986034E-04
      0.465000          0.961421E-04
      0.470000          0.936414E-04
      0.475000          0.912874E-04
      0.480000          0.892346E-04
      0.485000          0.875514E-04
      0.490000          0.862049E-04
      0.495000          0.850844E-04
      0.500000          0.840464E-04
