 I_abs(s)[cm^-1]/c[mg/ml]
       0.00000          0.125876E-01
      0.500000E-02      0.123688E-01
      0.100000E-01      0.117470E-01
      0.150000E-01      0.108172E-01
      0.200000E-01      0.971203E-02
      0.250000E-01      0.857151E-02
      0.300000E-01      0.751356E-02
      0.350000E-01      0.661395E-02
      0.400000E-01      0.589946E-02
      0.450000E-01      0.535434E-02
      0.500000E-01      0.493608E-02
      0.550000E-01      0.459420E-02
      0.600000E-01      0.428602E-02
      0.650000E-01      0.398558E-02
      0.700000E-01      0.368467E-02
      0.750000E-01      0.338803E-02
      0.800000E-01      0.310582E-02
      0.850000E-01      0.284699E-02
      0.900000E-01      0.261552E-02
      0.950000E-01      0.241007E-02
      0.100000          0.222602E-02
      0.105000          0.205827E-02
      0.110000          0.190332E-02
      0.115000          0.175995E-02
      0.120000          0.162853E-02
      0.125000          0.150985E-02
      0.130000          0.140397E-02
      0.135000          0.130988E-02
      0.140000          0.122575E-02
      0.145000          0.114958E-02
      0.150000          0.107984E-02
      0.155000          0.101565E-02
      0.160000          0.956661E-03
      0.165000          0.902704E-03
      0.170000          0.853435E-03
      0.175000          0.808227E-03
      0.180000          0.766273E-03
      0.185000          0.726803E-03
      0.190000          0.689273E-03
      0.195000          0.653404E-03
      0.200000          0.619096E-03
      0.205000          0.586292E-03
      0.210000          0.554883E-03
      0.215000          0.524728E-03
      0.220000          0.495749E-03
      0.225000          0.468020E-03
      0.230000          0.441798E-03
      0.235000          0.417428E-03
      0.240000          0.395195E-03
      0.245000          0.375183E-03
      0.250000          0.357215E-03
      0.255000          0.340927E-03
      0.260000          0.325912E-03
      0.265000          0.311876E-03
      0.270000          0.298718E-03
      0.275000          0.286503E-03
      0.280000          0.275338E-03
      0.285000          0.265239E-03
      0.290000          0.256045E-03
      0.295000          0.247436E-03
      0.300000          0.239041E-03
      0.305000          0.230586E-03
      0.310000          0.222002E-03
      0.315000          0.213435E-03
      0.320000          0.205174E-03
      0.325000          0.197510E-03
      0.330000          0.190609E-03
      0.335000          0.184454E-03
      0.340000          0.178870E-03
      0.345000          0.173606E-03
      0.350000          0.168444E-03
      0.355000          0.163261E-03
      0.360000          0.158045E-03
      0.365000          0.152849E-03
      0.370000          0.147749E-03
      0.375000          0.142795E-03
      0.380000          0.138006E-03
      0.385000          0.133389E-03
      0.390000          0.128956E-03
      0.395000          0.124740E-03
      0.400000          0.120786E-03
      0.405000          0.117137E-03
      0.410000          0.113815E-03
      0.415000          0.110811E-03
      0.420000          0.108090E-03
      0.425000          0.105596E-03
      0.430000          0.103264E-03
      0.435000          0.101037E-03
      0.440000          0.988776E-04
      0.445000          0.967778E-04
      0.450000          0.947649E-04
      0.455000          0.928908E-04
      0.460000          0.912114E-04
      0.465000          0.897636E-04
      0.470000          0.885506E-04
      0.475000          0.875414E-04
      0.480000          0.866852E-04
      0.485000          0.859305E-04
      0.490000          0.852391E-04
      0.495000          0.845898E-04
      0.500000          0.839704E-04
