 I_abs(s)[cm^-1]/c[mg/ml]
       0.00000          0.122208E-01
      0.500000E-02      0.120034E-01
      0.100000E-01      0.113858E-01
      0.150000E-01      0.104631E-01
      0.200000E-01      0.936699E-02
      0.250000E-01      0.823479E-02
      0.300000E-01      0.718025E-02
      0.350000E-01      0.627470E-02
      0.400000E-01      0.554219E-02
      0.450000E-01      0.496782E-02
      0.500000E-01      0.451412E-02
      0.550000E-01      0.413892E-02
      0.600000E-01      0.380877E-02
      0.650000E-01      0.350496E-02
      0.700000E-01      0.322226E-02
      0.750000E-01      0.296333E-02
      0.800000E-01      0.273226E-02
      0.850000E-01      0.253014E-02
      0.900000E-01      0.235390E-02
      0.950000E-01      0.219778E-02
      0.100000          0.205589E-02
      0.105000          0.192425E-02
      0.110000          0.180138E-02
      0.115000          0.168756E-02
      0.120000          0.158345E-02
      0.125000          0.148901E-02
      0.130000          0.140306E-02
      0.135000          0.132377E-02
      0.140000          0.124937E-02
      0.145000          0.117883E-02
      0.150000          0.111194E-02
      0.155000          0.104904E-02
      0.160000          0.990485E-03
      0.165000          0.936287E-03
      0.170000          0.885991E-03
      0.175000          0.838895E-03
      0.180000          0.794351E-03
      0.185000          0.751977E-03
      0.190000          0.711671E-03
      0.195000          0.673456E-03
      0.200000          0.637291E-03
      0.205000          0.602970E-03
      0.210000          0.570178E-03
      0.215000          0.538640E-03
      0.220000          0.508271E-03
      0.225000          0.479228E-03
      0.230000          0.451823E-03
      0.235000          0.426356E-03
      0.240000          0.402960E-03
      0.245000          0.381526E-03
      0.250000          0.361750E-03
      0.255000          0.343257E-03
      0.260000          0.325744E-03
      0.265000          0.309059E-03
      0.270000          0.293203E-03
      0.275000          0.278267E-03
      0.280000          0.264348E-03
      0.285000          0.251488E-03
      0.290000          0.239663E-03
      0.295000          0.228817E-03
      0.300000          0.218897E-03
      0.305000          0.209885E-03
      0.310000          0.201791E-03
      0.315000          0.194616E-03
      0.320000          0.188316E-03
      0.325000          0.182778E-03
      0.330000          0.177826E-03
      0.335000          0.173264E-03
      0.340000          0.168919E-03
      0.345000          0.164685E-03
      0.350000          0.160529E-03
      0.355000          0.156480E-03
      0.360000          0.152592E-03
      0.365000          0.148910E-03
      0.370000          0.145444E-03
      0.375000          0.142173E-03
      0.380000          0.139055E-03
      0.385000          0.136041E-03
      0.390000          0.133088E-03
      0.395000          0.130160E-03
      0.400000          0.127231E-03
      0.405000          0.124283E-03
      0.410000          0.121320E-03
      0.415000          0.118372E-03
      0.420000          0.115495E-03
      0.425000          0.112756E-03
      0.430000          0.110219E-03
      0.435000          0.107922E-03
      0.440000          0.105865E-03
      0.445000          0.104021E-03
      0.450000          0.102353E-03
      0.455000          0.100832E-03
      0.460000          0.994498E-04
      0.465000          0.982080E-04
      0.470000          0.970987E-04
      0.475000          0.960803E-04
      0.480000          0.950691E-04
      0.485000          0.939523E-04
      0.490000          0.926246E-04
      0.495000          0.910311E-04
      0.500000          0.891986E-04
