 I_abs(s)[cm^-1]/c[mg/ml]
       0.00000          0.119888E-01
      0.500000E-02      0.117785E-01
      0.100000E-01      0.111729E-01
      0.150000E-01      0.102436E-01
      0.200000E-01      0.909599E-02
      0.250000E-01      0.785107E-02
      0.300000E-01      0.662600E-02
      0.350000E-01      0.551693E-02
      0.400000E-01      0.458732E-02
      0.450000E-01      0.386359E-02
      0.500000E-01      0.333812E-02
      0.550000E-01      0.297792E-02
      0.600000E-01      0.273656E-02
      0.650000E-01      0.256607E-02
      0.700000E-01      0.242646E-02
      0.750000E-01      0.229122E-02
      0.800000E-01      0.214829E-02
      0.850000E-01      0.199743E-02
      0.900000E-01      0.184547E-02
      0.950000E-01      0.170110E-02
      0.100000          0.157087E-02
      0.105000          0.145714E-02
      0.110000          0.135811E-02
      0.115000          0.126943E-02
      0.120000          0.118642E-02
      0.125000          0.110603E-02
      0.130000          0.102787E-02
      0.135000          0.954009E-03
      0.140000          0.887842E-03
      0.145000          0.832574E-03
      0.150000          0.789827E-03
      0.155000          0.758916E-03
      0.160000          0.736980E-03
      0.165000          0.719837E-03
      0.170000          0.703235E-03
      0.175000          0.684038E-03
      0.180000          0.660964E-03
      0.185000          0.634695E-03
      0.190000          0.607363E-03
      0.195000          0.581658E-03
      0.200000          0.559883E-03
      0.205000          0.543251E-03
      0.210000          0.531618E-03
      0.215000          0.523689E-03
      0.220000          0.517547E-03
      0.225000          0.511304E-03
      0.230000          0.503624E-03
      0.235000          0.493993E-03
      0.240000          0.482650E-03
      0.245000          0.470292E-03
      0.250000          0.457673E-03
      0.255000          0.445260E-03
      0.260000          0.433078E-03
      0.265000          0.420771E-03
      0.270000          0.407822E-03
      0.275000          0.393845E-03
      0.280000          0.378817E-03
      0.285000          0.363157E-03
      0.290000          0.347635E-03
      0.295000          0.333136E-03
      0.300000          0.320379E-03
      0.305000          0.309686E-03
      0.310000          0.300877E-03
      0.315000          0.293335E-03
      0.320000          0.286195E-03
      0.325000          0.278610E-03
      0.330000          0.269992E-03
      0.335000          0.260161E-03
      0.340000          0.249359E-03
      0.345000          0.238139E-03
      0.350000          0.227174E-03
      0.355000          0.217054E-03
      0.360000          0.208131E-03
      0.365000          0.200461E-03
      0.370000          0.193838E-03
      0.375000          0.187908E-03
      0.380000          0.182310E-03
      0.385000          0.176795E-03
      0.390000          0.171292E-03
      0.395000          0.165899E-03
      0.400000          0.160824E-03
      0.405000          0.156287E-03
      0.410000          0.152431E-03
      0.415000          0.149269E-03
      0.420000          0.146673E-03
      0.425000          0.144412E-03
      0.430000          0.142218E-03
      0.435000          0.139857E-03
      0.440000          0.137185E-03
      0.445000          0.134173E-03
      0.450000          0.130894E-03
      0.455000          0.127492E-03
      0.460000          0.124134E-03
      0.465000          0.120960E-03
      0.470000          0.118053E-03
      0.475000          0.115424E-03
      0.480000          0.113016E-03
      0.485000          0.110725E-03
      0.490000          0.108430E-03
      0.495000          0.106019E-03
      0.500000          0.103415E-03
