 I_abs(s)[cm^-1]/c[mg/ml]
       0.00000          0.122426E-01
      0.500000E-02      0.119636E-01
      0.100000E-01      0.111821E-01
      0.150000E-01      0.100475E-01
      0.200000E-01      0.875623E-02
      0.250000E-01      0.749587E-02
      0.300000E-01      0.639923E-02
      0.350000E-01      0.552402E-02
      0.400000E-01      0.486047E-02
      0.450000E-01      0.435843E-02
      0.500000E-01      0.395903E-02
      0.550000E-01      0.361789E-02
      0.600000E-01      0.331328E-02
      0.650000E-01      0.304119E-02
      0.700000E-01      0.280424E-02
      0.750000E-01      0.260219E-02
      0.800000E-01      0.242845E-02
      0.850000E-01      0.227248E-02
      0.900000E-01      0.212467E-02
      0.950000E-01      0.198014E-02
      0.100000          0.183942E-02
      0.105000          0.170620E-02
      0.110000          0.158429E-02
      0.115000          0.147550E-02
      0.120000          0.137921E-02
      0.125000          0.129337E-02
      0.130000          0.121573E-02
      0.135000          0.114464E-02
      0.140000          0.107906E-02
      0.145000          0.101825E-02
      0.150000          0.961486E-03
      0.155000          0.908089E-03
      0.160000          0.857586E-03
      0.165000          0.809865E-03
      0.170000          0.765099E-03
      0.175000          0.723517E-03
      0.180000          0.685184E-03
      0.185000          0.649927E-03
      0.190000          0.617416E-03
      0.195000          0.587287E-03
      0.200000          0.559200E-03
      0.205000          0.532807E-03
      0.210000          0.507695E-03
      0.215000          0.483388E-03
      0.220000          0.459453E-03
      0.225000          0.435637E-03
      0.230000          0.411971E-03
      0.235000          0.388755E-03
      0.240000          0.366430E-03
      0.245000          0.345413E-03
      0.250000          0.325974E-03
      0.255000          0.308177E-03
      0.260000          0.291915E-03
      0.265000          0.276978E-03
      0.270000          0.263125E-03
      0.275000          0.250141E-03
      0.280000          0.237876E-03
      0.285000          0.226258E-03
      0.290000          0.215290E-03
      0.295000          0.205026E-03
      0.300000          0.195543E-03
      0.305000          0.186902E-03
      0.310000          0.179127E-03
      0.315000          0.172195E-03
      0.320000          0.166039E-03
      0.325000          0.160550E-03
      0.330000          0.155585E-03
      0.335000          0.150965E-03
      0.340000          0.146495E-03
      0.345000          0.141988E-03
      0.350000          0.137315E-03
      0.355000          0.132444E-03
      0.360000          0.127470E-03
      0.365000          0.122590E-03
      0.370000          0.118050E-03
      0.375000          0.114060E-03
      0.380000          0.110721E-03
      0.385000          0.108001E-03
      0.390000          0.105754E-03
      0.395000          0.103785E-03
      0.400000          0.101913E-03
      0.405000          0.100029E-03
      0.410000          0.981057E-04
      0.415000          0.961896E-04
      0.420000          0.943583E-04
      0.425000          0.926786E-04
      0.430000          0.911715E-04
      0.435000          0.898021E-04
      0.440000          0.884994E-04
      0.445000          0.871935E-04
      0.450000          0.858484E-04
      0.455000          0.844695E-04
      0.460000          0.830804E-04
      0.465000          0.816879E-04
      0.470000          0.802591E-04
      0.475000          0.787289E-04
      0.480000          0.770321E-04
      0.485000          0.751400E-04
      0.490000          0.730798E-04
      0.495000          0.709282E-04
      0.500000          0.687857E-04
