 I_abs(s)[cm^-1]/c[mg/ml]
       0.00000          0.125802E-01
      0.500000E-02      0.123597E-01
      0.100000E-01      0.117342E-01
      0.150000E-01      0.108031E-01
      0.200000E-01      0.970347E-02
      0.250000E-01      0.857773E-02
      0.300000E-01      0.754264E-02
      0.350000E-01      0.666924E-02
      0.400000E-01      0.597772E-02
      0.450000E-01      0.544634E-02
      0.500000E-01      0.502927E-02
      0.550000E-01      0.467637E-02
      0.600000E-01      0.434829E-02
      0.650000E-01      0.402381E-02
      0.700000E-01      0.369895E-02
      0.750000E-01      0.338093E-02
      0.800000E-01      0.308051E-02
      0.850000E-01      0.280615E-02
      0.900000E-01      0.256145E-02
      0.950000E-01      0.234557E-02
      0.100000          0.215538E-02
      0.105000          0.198758E-02
      0.110000          0.183972E-02
      0.115000          0.171016E-02
      0.120000          0.159727E-02
      0.125000          0.149880E-02
      0.130000          0.141181E-02
      0.135000          0.133317E-02
      0.140000          0.126028E-02
      0.145000          0.119155E-02
      0.150000          0.112639E-02
      0.155000          0.106479E-02
      0.160000          0.100674E-02
      0.165000          0.951823E-03
      0.170000          0.899256E-03
      0.175000          0.848177E-03
      0.180000          0.798067E-03
      0.185000          0.748995E-03
      0.190000          0.701575E-03
      0.195000          0.656671E-03
      0.200000          0.615013E-03
      0.205000          0.576925E-03
      0.210000          0.542273E-03
      0.215000          0.510617E-03
      0.220000          0.481450E-03
      0.225000          0.454404E-03
      0.230000          0.429323E-03
      0.235000          0.406217E-03
      0.240000          0.385147E-03
      0.245000          0.366127E-03
      0.250000          0.349088E-03
      0.255000          0.333890E-03
      0.260000          0.320361E-03
      0.265000          0.308299E-03
      0.270000          0.297460E-03
      0.275000          0.287518E-03
      0.280000          0.278070E-03
      0.285000          0.268690E-03
      0.290000          0.259022E-03
      0.295000          0.248890E-03
      0.300000          0.238343E-03
      0.305000          0.227629E-03
      0.310000          0.217093E-03
      0.315000          0.207053E-03
      0.320000          0.197705E-03
      0.325000          0.189103E-03
      0.330000          0.181199E-03
      0.335000          0.173922E-03
      0.340000          0.167231E-03
      0.345000          0.161115E-03
      0.350000          0.155563E-03
      0.355000          0.150514E-03
      0.360000          0.145854E-03
      0.365000          0.141447E-03
      0.370000          0.137210E-03
      0.375000          0.133168E-03
      0.380000          0.129459E-03
      0.385000          0.126284E-03
      0.390000          0.123813E-03
      0.395000          0.122105E-03
      0.400000          0.121068E-03
      0.405000          0.120477E-03
      0.410000          0.120034E-03
      0.415000          0.119451E-03
      0.420000          0.118511E-03
      0.425000          0.117099E-03
      0.430000          0.115202E-03
      0.435000          0.112882E-03
      0.440000          0.110238E-03
      0.445000          0.107378E-03
      0.450000          0.104412E-03
      0.455000          0.101451E-03
      0.460000          0.986231E-04
      0.465000          0.960742E-04
      0.470000          0.939405E-04
      0.475000          0.923045E-04
      0.480000          0.911466E-04
      0.485000          0.903207E-04
      0.490000          0.895768E-04
      0.495000          0.886262E-04
      0.500000          0.872300E-04
