 I_abs(s)[cm^-1]/c[mg/ml]
       0.00000          0.121989E-01
      0.500000E-02      0.119808E-01
      0.100000E-01      0.113608E-01
      0.150000E-01      0.104331E-01
      0.200000E-01      0.932898E-02
      0.250000E-01      0.818707E-02
      0.300000E-01      0.712411E-02
      0.350000E-01      0.621555E-02
      0.400000E-01      0.548920E-02
      0.450000E-01      0.493174E-02
      0.500000E-01      0.450409E-02
      0.550000E-01      0.415926E-02
      0.600000E-01      0.385715E-02
      0.650000E-01      0.357259E-02
      0.700000E-01      0.329623E-02
      0.750000E-01      0.303015E-02
      0.800000E-01      0.278137E-02
      0.850000E-01      0.255621E-02
      0.900000E-01      0.235721E-02
      0.950000E-01      0.218280E-02
      0.100000          0.202882E-02
      0.105000          0.189062E-02
      0.110000          0.176448E-02
      0.115000          0.164823E-02
      0.120000          0.154094E-02
      0.125000          0.144232E-02
      0.130000          0.135224E-02
      0.135000          0.127038E-02
      0.140000          0.119628E-02
      0.145000          0.112930E-02
      0.150000          0.106861E-02
      0.155000          0.101318E-02
      0.160000          0.961795E-03
      0.165000          0.913208E-03
      0.170000          0.866454E-03
      0.175000          0.821100E-03
      0.180000          0.777338E-03
      0.185000          0.735824E-03
      0.190000          0.697296E-03
      0.195000          0.662159E-03
      0.200000          0.630219E-03
      0.205000          0.600699E-03
      0.210000          0.572518E-03
      0.215000          0.544701E-03
      0.220000          0.516714E-03
      0.225000          0.488589E-03
      0.230000          0.460805E-03
      0.235000          0.434005E-03
      0.240000          0.408710E-03
      0.245000          0.385150E-03
      0.250000          0.363283E-03
      0.255000          0.342939E-03
      0.260000          0.323999E-03
      0.265000          0.306504E-03
      0.270000          0.290637E-03
      0.275000          0.276611E-03
      0.280000          0.264511E-03
      0.285000          0.254197E-03
      0.290000          0.245294E-03
      0.295000          0.237279E-03
      0.300000          0.229624E-03
      0.305000          0.221928E-03
      0.310000          0.214004E-03
      0.315000          0.205879E-03
      0.320000          0.197744E-03
      0.325000          0.189866E-03
      0.330000          0.182490E-03
      0.335000          0.175784E-03
      0.340000          0.169803E-03
      0.345000          0.164494E-03
      0.350000          0.159731E-03
      0.355000          0.155351E-03
      0.360000          0.151204E-03
      0.365000          0.147185E-03
      0.370000          0.143253E-03
      0.375000          0.139431E-03
      0.380000          0.135790E-03
      0.385000          0.132421E-03
      0.390000          0.129402E-03
      0.395000          0.126775E-03
      0.400000          0.124531E-03
      0.405000          0.122618E-03
      0.410000          0.120954E-03
      0.415000          0.119449E-03
      0.420000          0.118023E-03
      0.425000          0.116617E-03
      0.430000          0.115196E-03
      0.435000          0.113746E-03
      0.440000          0.112276E-03
      0.445000          0.110810E-03
      0.450000          0.109383E-03
      0.455000          0.108029E-03
      0.460000          0.106770E-03
      0.465000          0.105596E-03
      0.470000          0.104468E-03
      0.475000          0.103322E-03
      0.480000          0.102085E-03
      0.485000          0.100703E-03
      0.490000          0.991514E-04
      0.495000          0.974436E-04
      0.500000          0.956195E-04
