 I_abs(s)[cm^-1]/c[mg/ml]
       0.00000          0.128700E-01
      0.500000E-02      0.126637E-01
      0.100000E-01      0.120762E-01
      0.150000E-01      0.111939E-01
      0.200000E-01      0.101376E-01
      0.250000E-01      0.903494E-02
      0.300000E-01      0.799409E-02
      0.350000E-01      0.708609E-02
      0.400000E-01      0.633890E-02
      0.450000E-01      0.574324E-02
      0.500000E-01      0.526627E-02
      0.550000E-01      0.486753E-02
      0.600000E-01      0.451196E-02
      0.650000E-01      0.417707E-02
      0.700000E-01      0.385373E-02
      0.750000E-01      0.354251E-02
      0.800000E-01      0.324831E-02
      0.850000E-01      0.297587E-02
      0.900000E-01      0.272743E-02
      0.950000E-01      0.250267E-02
      0.100000          0.229985E-02
      0.105000          0.211715E-02
      0.110000          0.195326E-02
      0.115000          0.180728E-02
      0.120000          0.167806E-02
      0.125000          0.156370E-02
      0.130000          0.146153E-02
      0.135000          0.136859E-02
      0.140000          0.128223E-02
      0.145000          0.120071E-02
      0.150000          0.112327E-02
      0.155000          0.104995E-02
      0.160000          0.981084E-03
      0.165000          0.916907E-03
      0.170000          0.857355E-03
      0.175000          0.802106E-03
      0.180000          0.750744E-03
      0.185000          0.702926E-03
      0.190000          0.658444E-03
      0.195000          0.617175E-03
      0.200000          0.578998E-03
      0.205000          0.543738E-03
      0.210000          0.511177E-03
      0.215000          0.481124E-03
      0.220000          0.453467E-03
      0.225000          0.428175E-03
      0.230000          0.405244E-03
      0.235000          0.384617E-03
      0.240000          0.366129E-03
      0.245000          0.349517E-03
      0.250000          0.334489E-03
      0.255000          0.320795E-03
      0.260000          0.308278E-03
      0.265000          0.296853E-03
      0.270000          0.286446E-03
      0.275000          0.276922E-03
      0.280000          0.268054E-03
      0.285000          0.259545E-03
      0.290000          0.251111E-03
      0.295000          0.242565E-03
      0.300000          0.233874E-03
      0.305000          0.225149E-03
      0.310000          0.216590E-03
      0.315000          0.208402E-03
      0.320000          0.200719E-03
      0.325000          0.193578E-03
      0.330000          0.186929E-03
      0.335000          0.180683E-03
      0.340000          0.174762E-03
      0.345000          0.169130E-03
      0.350000          0.163803E-03
      0.355000          0.158837E-03
      0.360000          0.154293E-03
      0.365000          0.150224E-03
      0.370000          0.146647E-03
      0.375000          0.143538E-03
      0.380000          0.140827E-03
      0.385000          0.138398E-03
      0.390000          0.136103E-03
      0.395000          0.133785E-03
      0.400000          0.131308E-03
      0.405000          0.128589E-03
      0.410000          0.125621E-03
      0.415000          0.122471E-03
      0.420000          0.119256E-03
      0.425000          0.116108E-03
      0.430000          0.113134E-03
      0.435000          0.110397E-03
      0.440000          0.107911E-03
      0.445000          0.105652E-03
      0.450000          0.103586E-03
      0.455000          0.101677E-03
      0.460000          0.998965E-04
      0.465000          0.982276E-04
      0.470000          0.966558E-04
      0.475000          0.951691E-04
      0.480000          0.937562E-04
      0.485000          0.924081E-04
      0.490000          0.911171E-04
      0.495000          0.898751E-04
      0.500000          0.886711E-04
