 I_abs(s)[cm^-1]/c[mg/ml]
       0.00000          0.118450E-01
      0.500000E-02      0.115791E-01
      0.100000E-01      0.108364E-01
      0.150000E-01      0.976382E-02
      0.200000E-01      0.855342E-02
      0.250000E-01      0.738557E-02
      0.300000E-01      0.638352E-02
      0.350000E-01      0.559432E-02
      0.400000E-01      0.499853E-02
      0.450000E-01      0.453932E-02
      0.500000E-01      0.415567E-02
      0.550000E-01      0.380581E-02
      0.600000E-01      0.347444E-02
      0.650000E-01      0.316597E-02
      0.700000E-01      0.289144E-02
      0.750000E-01      0.265742E-02
      0.800000E-01      0.246163E-02
      0.850000E-01      0.229515E-02
      0.900000E-01      0.214775E-02
      0.950000E-01      0.201233E-02
      0.100000          0.188628E-02
      0.105000          0.176993E-02
      0.110000          0.166406E-02
      0.115000          0.156819E-02
      0.120000          0.148042E-02
      0.125000          0.139845E-02
      0.130000          0.132061E-02
      0.135000          0.124630E-02
      0.140000          0.117567E-02
      0.145000          0.110907E-02
      0.150000          0.104663E-02
      0.155000          0.988307E-03
      0.160000          0.934033E-03
      0.165000          0.883850E-03
      0.170000          0.837749E-03
      0.175000          0.795412E-03
      0.180000          0.756070E-03
      0.185000          0.718643E-03
      0.190000          0.682100E-03
      0.195000          0.645832E-03
      0.200000          0.609815E-03
      0.205000          0.574500E-03
      0.210000          0.540527E-03
      0.215000          0.508435E-03
      0.220000          0.478528E-03
      0.225000          0.450874E-03
      0.230000          0.425395E-03
      0.235000          0.401938E-03
      0.240000          0.380291E-03
      0.245000          0.360178E-03
      0.250000          0.341275E-03
      0.255000          0.323264E-03
      0.260000          0.305906E-03
      0.265000          0.289093E-03
      0.270000          0.272845E-03
      0.275000          0.257256E-03
      0.280000          0.242434E-03
      0.285000          0.228453E-03
      0.290000          0.215337E-03
      0.295000          0.203072E-03
      0.300000          0.191621E-03
      0.305000          0.180937E-03
      0.310000          0.170972E-03
      0.315000          0.161680E-03
      0.320000          0.153043E-03
      0.325000          0.145072E-03
      0.330000          0.137806E-03
      0.335000          0.131276E-03
      0.340000          0.125471E-03
      0.345000          0.120307E-03
      0.350000          0.115643E-03
      0.355000          0.111325E-03
      0.360000          0.107240E-03
      0.365000          0.103350E-03
      0.370000          0.996766E-04
      0.375000          0.962662E-04
      0.380000          0.931464E-04
      0.385000          0.903039E-04
      0.390000          0.876899E-04
      0.395000          0.852444E-04
      0.400000          0.829244E-04
      0.405000          0.807261E-04
      0.410000          0.786932E-04
      0.415000          0.769051E-04
      0.420000          0.754430E-04
      0.425000          0.743435E-04
      0.430000          0.735605E-04
      0.435000          0.729601E-04
      0.440000          0.723587E-04
      0.445000          0.715904E-04
      0.450000          0.705690E-04
      0.455000          0.693146E-04
      0.460000          0.679313E-04
      0.465000          0.665508E-04
      0.470000          0.652695E-04
      0.475000          0.641088E-04
      0.480000          0.630150E-04
      0.485000          0.618966E-04
      0.490000          0.606792E-04
      0.495000          0.593512E-04
      0.500000          0.579758E-04
