 I_abs(s)[cm^-1]/c[mg/ml]
       0.00000          0.122937E-01
      0.500000E-02      0.120695E-01
      0.100000E-01      0.114312E-01
      0.150000E-01      0.104732E-01
      0.200000E-01      0.932806E-02
      0.250000E-01      0.813698E-02
      0.300000E-01      0.702143E-02
      0.350000E-01      0.606289E-02
      0.400000E-01      0.529534E-02
      0.450000E-01      0.471039E-02
      0.500000E-01      0.427137E-02
      0.550000E-01      0.393069E-02
      0.600000E-01      0.364499E-02
      0.650000E-01      0.338425E-02
      0.700000E-01      0.313403E-02
      0.750000E-01      0.289230E-02
      0.800000E-01      0.266358E-02
      0.850000E-01      0.245338E-02
      0.900000E-01      0.226472E-02
      0.950000E-01      0.209723E-02
      0.100000          0.194818E-02
      0.105000          0.181413E-02
      0.110000          0.169235E-02
      0.115000          0.158126E-02
      0.120000          0.148016E-02
      0.125000          0.138859E-02
      0.130000          0.130582E-02
      0.135000          0.123071E-02
      0.140000          0.116196E-02
      0.145000          0.109841E-02
      0.150000          0.103924E-02
      0.155000          0.983961E-03
      0.160000          0.932245E-03
      0.165000          0.883689E-03
      0.170000          0.837734E-03
      0.175000          0.793736E-03
      0.180000          0.751158E-03
      0.185000          0.709756E-03
      0.190000          0.669657E-03
      0.195000          0.631282E-03
      0.200000          0.595164E-03
      0.205000          0.561742E-03
      0.210000          0.531213E-03
      0.215000          0.503498E-03
      0.220000          0.478296E-03
      0.225000          0.455195E-03
      0.230000          0.433777E-03
      0.235000          0.413689E-03
      0.240000          0.394665E-03
      0.245000          0.376534E-03
      0.250000          0.359197E-03
      0.255000          0.342627E-03
      0.260000          0.326855E-03
      0.265000          0.311960E-03
      0.270000          0.298051E-03
      0.275000          0.285228E-03
      0.280000          0.273554E-03
      0.285000          0.263020E-03
      0.290000          0.253539E-03
      0.295000          0.244946E-03
      0.300000          0.237023E-03
      0.305000          0.229532E-03
      0.310000          0.222250E-03
      0.315000          0.214999E-03
      0.320000          0.207673E-03
      0.325000          0.200239E-03
      0.330000          0.192743E-03
      0.335000          0.185284E-03
      0.340000          0.178003E-03
      0.345000          0.171061E-03
      0.350000          0.164620E-03
      0.355000          0.158829E-03
      0.360000          0.153806E-03
      0.365000          0.149605E-03
      0.370000          0.146196E-03
      0.375000          0.143442E-03
      0.380000          0.141100E-03
      0.385000          0.138858E-03
      0.390000          0.136402E-03
      0.395000          0.133501E-03
      0.400000          0.130080E-03
      0.405000          0.126244E-03
      0.410000          0.122253E-03
      0.415000          0.118438E-03
      0.420000          0.115092E-03
      0.425000          0.112387E-03
      0.430000          0.110335E-03
      0.435000          0.108814E-03
      0.440000          0.107634E-03
      0.445000          0.106620E-03
      0.450000          0.105668E-03
      0.455000          0.104754E-03
      0.460000          0.103908E-03
      0.465000          0.103164E-03
      0.470000          0.102520E-03
      0.475000          0.101924E-03
      0.480000          0.101288E-03
      0.485000          0.100529E-03
      0.490000          0.995981E-04
      0.495000          0.984967E-04
      0.500000          0.972669E-04
