 I_abs(s)[cm^-1]/c[mg/ml]
       0.00000          0.124623E-01
      0.500000E-02      0.122387E-01
      0.100000E-01      0.116039E-01
      0.150000E-01      0.106565E-01
      0.200000E-01      0.953364E-02
      0.250000E-01      0.837833E-02
      0.300000E-01      0.730950E-02
      0.350000E-01      0.640147E-02
      0.400000E-01      0.567811E-02
      0.450000E-01      0.512088E-02
      0.500000E-01      0.468595E-02
      0.550000E-01      0.432358E-02
      0.600000E-01      0.399361E-02
      0.650000E-01      0.367321E-02
      0.700000E-01      0.335677E-02
      0.750000E-01      0.305024E-02
      0.800000E-01      0.276356E-02
      0.850000E-01      0.250467E-02
      0.900000E-01      0.227659E-02
      0.950000E-01      0.207773E-02
      0.100000          0.190407E-02
      0.105000          0.175147E-02
      0.110000          0.161705E-02
      0.115000          0.149918E-02
      0.120000          0.139668E-02
      0.125000          0.130792E-02
      0.130000          0.123043E-02
      0.135000          0.116127E-02
      0.140000          0.109778E-02
      0.145000          0.103823E-02
      0.150000          0.982055E-03
      0.155000          0.929525E-03
      0.160000          0.881113E-03
      0.165000          0.836892E-03
      0.170000          0.796268E-03
      0.175000          0.758141E-03
      0.180000          0.721345E-03
      0.185000          0.685113E-03
      0.190000          0.649334E-03
      0.195000          0.614500E-03
      0.200000          0.581407E-03
      0.205000          0.550775E-03
      0.210000          0.522968E-03
      0.215000          0.497902E-03
      0.220000          0.475145E-03
      0.225000          0.454134E-03
      0.230000          0.434376E-03
      0.235000          0.415584E-03
      0.240000          0.397700E-03
      0.245000          0.380836E-03
      0.250000          0.365169E-03
      0.255000          0.350851E-03
      0.260000          0.337927E-03
      0.265000          0.326305E-03
      0.270000          0.315738E-03
      0.275000          0.305855E-03
      0.280000          0.296218E-03
      0.285000          0.286398E-03
      0.290000          0.276080E-03
      0.295000          0.265136E-03
      0.300000          0.253675E-03
      0.305000          0.242014E-03
      0.310000          0.230607E-03
      0.315000          0.219921E-03
      0.320000          0.210323E-03
      0.325000          0.201997E-03
      0.330000          0.194927E-03
      0.335000          0.188930E-03
      0.340000          0.183730E-03
      0.345000          0.179042E-03
      0.350000          0.174624E-03
      0.355000          0.170307E-03
      0.360000          0.165991E-03
      0.365000          0.161628E-03
      0.370000          0.157192E-03
      0.375000          0.152673E-03
      0.380000          0.148066E-03
      0.385000          0.143380E-03
      0.390000          0.138653E-03
      0.395000          0.133955E-03
      0.400000          0.129395E-03
      0.405000          0.125106E-03
      0.410000          0.121220E-03
      0.415000          0.117832E-03
      0.420000          0.114977E-03
      0.425000          0.112623E-03
      0.430000          0.110693E-03
      0.435000          0.109094E-03
      0.440000          0.107749E-03
      0.445000          0.106610E-03
      0.450000          0.105650E-03
      0.455000          0.104849E-03
      0.460000          0.104171E-03
      0.465000          0.103565E-03
      0.470000          0.102971E-03
      0.475000          0.102330E-03
      0.480000          0.101595E-03
      0.485000          0.100714E-03
      0.490000          0.996283E-04
      0.495000          0.982601E-04
      0.500000          0.965259E-04
