 I_abs(s)[cm^-1]/c[mg/ml]
       0.00000          0.127879E-01
      0.500000E-02      0.125740E-01
      0.100000E-01      0.119666E-01
      0.150000E-01      0.110596E-01
      0.200000E-01      0.998383E-02
      0.250000E-01      0.887560E-02
      0.300000E-01      0.784823E-02
      0.350000E-01      0.697244E-02
      0.400000E-01      0.627084E-02
      0.450000E-01      0.572555E-02
      0.500000E-01      0.529459E-02
      0.550000E-01      0.493035E-02
      0.600000E-01      0.459436E-02
      0.650000E-01      0.426472E-02
      0.700000E-01      0.393600E-02
      0.750000E-01      0.361386E-02
      0.800000E-01      0.330795E-02
      0.850000E-01      0.302617E-02
      0.900000E-01      0.277192E-02
      0.950000E-01      0.254442E-02
      0.100000          0.234058E-02
      0.105000          0.215717E-02
      0.110000          0.199197E-02
      0.115000          0.184370E-02
      0.120000          0.171129E-02
      0.125000          0.159308E-02
      0.130000          0.148669E-02
      0.135000          0.138941E-02
      0.140000          0.129903E-02
      0.145000          0.121437E-02
      0.150000          0.113540E-02
      0.155000          0.106272E-02
      0.160000          0.996870E-03
      0.165000          0.937648E-03
      0.170000          0.883983E-03
      0.175000          0.834192E-03
      0.180000          0.786560E-03
      0.185000          0.739895E-03
      0.190000          0.693813E-03
      0.195000          0.648661E-03
      0.200000          0.605192E-03
      0.205000          0.564154E-03
      0.210000          0.526013E-03
      0.215000          0.490877E-03
      0.220000          0.458599E-03
      0.225000          0.428944E-03
      0.230000          0.401723E-03
      0.235000          0.376834E-03
      0.240000          0.354212E-03
      0.245000          0.333775E-03
      0.250000          0.315388E-03
      0.255000          0.298892E-03
      0.260000          0.284158E-03
      0.265000          0.271119E-03
      0.270000          0.259762E-03
      0.275000          0.250054E-03
      0.280000          0.241867E-03
      0.285000          0.234920E-03
      0.290000          0.228798E-03
      0.295000          0.223032E-03
      0.300000          0.217218E-03
      0.305000          0.211112E-03
      0.310000          0.204678E-03
      0.315000          0.198051E-03
      0.320000          0.191459E-03
      0.325000          0.185124E-03
      0.330000          0.179194E-03
      0.335000          0.173719E-03
      0.340000          0.168671E-03
      0.345000          0.163985E-03
      0.350000          0.159601E-03
      0.355000          0.155486E-03
      0.360000          0.151629E-03
      0.365000          0.148037E-03
      0.370000          0.144724E-03
      0.375000          0.141706E-03
      0.380000          0.138996E-03
      0.385000          0.136594E-03
      0.390000          0.134482E-03
      0.395000          0.132606E-03
      0.400000          0.130883E-03
      0.405000          0.129212E-03
      0.410000          0.127497E-03
      0.415000          0.125672E-03
      0.420000          0.123714E-03
      0.425000          0.121639E-03
      0.430000          0.119489E-03
      0.435000          0.117311E-03
      0.440000          0.115145E-03
      0.445000          0.113010E-03
      0.450000          0.110910E-03
      0.455000          0.108838E-03
      0.460000          0.106774E-03
      0.465000          0.104698E-03
      0.470000          0.102588E-03
      0.475000          0.100428E-03
      0.480000          0.982135E-04
      0.485000          0.959521E-04
      0.490000          0.936655E-04
      0.495000          0.913853E-04
      0.500000          0.891488E-04
