 I_abs(s)[cm^-1]/c[mg/ml]
       0.00000          0.126542E-01
      0.500000E-02      0.124486E-01
      0.100000E-01      0.118626E-01
      0.150000E-01      0.109814E-01
      0.200000E-01      0.992405E-02
      0.250000E-01      0.881682E-02
      0.300000E-01      0.776733E-02
      0.350000E-01      0.684685E-02
      0.400000E-01      0.608421E-02
      0.450000E-01      0.547129E-02
      0.500000E-01      0.497639E-02
      0.550000E-01      0.456005E-02
      0.600000E-01      0.418820E-02
      0.650000E-01      0.383945E-02
      0.700000E-01      0.350598E-02
      0.750000E-01      0.318962E-02
      0.800000E-01      0.289623E-02
      0.850000E-01      0.263071E-02
      0.900000E-01      0.239451E-02
      0.950000E-01      0.218566E-02
      0.100000          0.200036E-02
      0.105000          0.183488E-02
      0.110000          0.168672E-02
      0.115000          0.155470E-02
      0.120000          0.143824E-02
      0.125000          0.133648E-02
      0.130000          0.124779E-02
      0.135000          0.116983E-02
      0.140000          0.110017E-02
      0.145000          0.103686E-02
      0.150000          0.978845E-03
      0.155000          0.925865E-03
      0.160000          0.878053E-03
      0.165000          0.835432E-03
      0.170000          0.797567E-03
      0.175000          0.763510E-03
      0.180000          0.732017E-03
      0.185000          0.701890E-03
      0.190000          0.672265E-03
      0.195000          0.642752E-03
      0.200000          0.613377E-03
      0.205000          0.584422E-03
      0.210000          0.556236E-03
      0.215000          0.529092E-03
      0.220000          0.503130E-03
      0.225000          0.478370E-03
      0.230000          0.454760E-03
      0.235000          0.432227E-03
      0.240000          0.410731E-03
      0.245000          0.390290E-03
      0.250000          0.370999E-03
      0.255000          0.353020E-03
      0.260000          0.336548E-03
      0.265000          0.321756E-03
      0.270000          0.308727E-03
      0.275000          0.297395E-03
      0.280000          0.287528E-03
      0.285000          0.278747E-03
      0.290000          0.270597E-03
      0.295000          0.262627E-03
      0.300000          0.254476E-03
      0.305000          0.245924E-03
      0.310000          0.236908E-03
      0.315000          0.227504E-03
      0.320000          0.217884E-03
      0.325000          0.208268E-03
      0.330000          0.198876E-03
      0.335000          0.189901E-03
      0.340000          0.181484E-03
      0.345000          0.173721E-03
      0.350000          0.166666E-03
      0.355000          0.160349E-03
      0.360000          0.154790E-03
      0.365000          0.150002E-03
      0.370000          0.145984E-03
      0.375000          0.142700E-03
      0.380000          0.140057E-03
      0.385000          0.137893E-03
      0.390000          0.135988E-03
      0.395000          0.134100E-03
      0.400000          0.132028E-03
      0.405000          0.129659E-03
      0.410000          0.126999E-03
      0.415000          0.124154E-03
      0.420000          0.121277E-03
      0.425000          0.118505E-03
      0.430000          0.115902E-03
      0.435000          0.113458E-03
      0.440000          0.111113E-03
      0.445000          0.108814E-03
      0.450000          0.106552E-03
      0.455000          0.104368E-03
      0.460000          0.102328E-03
      0.465000          0.100487E-03
      0.470000          0.988597E-04
      0.475000          0.974311E-04
      0.480000          0.961818E-04
      0.485000          0.951193E-04
      0.490000          0.942817E-04
      0.495000          0.937078E-04
      0.500000          0.933875E-04
