 I_abs(s)[cm^-1]/c[mg/ml]
       0.00000          0.139920E-01
      0.500000E-02      0.139385E-01
      0.100000E-01      0.137793E-01
      0.150000E-01      0.135186E-01
      0.200000E-01      0.131630E-01
      0.250000E-01      0.127213E-01
      0.300000E-01      0.122043E-01
      0.350000E-01      0.116242E-01
      0.400000E-01      0.109943E-01
      0.450000E-01      0.103282E-01
      0.500000E-01      0.963971E-02
      0.550000E-01      0.894201E-02
      0.600000E-01      0.824743E-02
      0.650000E-01      0.756703E-02
      0.700000E-01      0.691035E-02
      0.750000E-01      0.628523E-02
      0.800000E-01      0.569768E-02
      0.850000E-01      0.515189E-02
      0.900000E-01      0.465030E-02
      0.950000E-01      0.419375E-02
      0.100000          0.378164E-02
      0.105000          0.341222E-02
      0.110000          0.308282E-02
      0.115000          0.279010E-02
      0.120000          0.253037E-02
      0.125000          0.229974E-02
      0.130000          0.209439E-02
      0.135000          0.191072E-02
      0.140000          0.174547E-02
      0.145000          0.159581E-02
      0.150000          0.145936E-02
      0.155000          0.133423E-02
      0.160000          0.121895E-02
      0.165000          0.111247E-02
      0.170000          0.101405E-02
      0.175000          0.923224E-03
      0.180000          0.839683E-03
      0.185000          0.763249E-03
      0.190000          0.693781E-03
      0.195000          0.631141E-03
      0.200000          0.575148E-03
      0.205000          0.525559E-03
      0.210000          0.482056E-03
      0.215000          0.444248E-03
      0.220000          0.411678E-03
      0.225000          0.383836E-03
      0.230000          0.360185E-03
      0.235000          0.340174E-03
      0.240000          0.323258E-03
      0.245000          0.308920E-03
      0.250000          0.296679E-03
      0.255000          0.286100E-03
      0.260000          0.276804E-03
      0.265000          0.268467E-03
      0.270000          0.260818E-03
      0.275000          0.253637E-03
      0.280000          0.246750E-03
      0.285000          0.240023E-03
      0.290000          0.233358E-03
      0.295000          0.226681E-03
      0.300000          0.219946E-03
      0.305000          0.213124E-03
      0.310000          0.206204E-03
      0.315000          0.199189E-03
      0.320000          0.192093E-03
      0.325000          0.184945E-03
      0.330000          0.177780E-03
      0.335000          0.170645E-03
      0.340000          0.163592E-03
      0.345000          0.156682E-03
      0.350000          0.149976E-03
      0.355000          0.143541E-03
      0.360000          0.137440E-03
      0.365000          0.131733E-03
      0.370000          0.126475E-03
      0.375000          0.121715E-03
      0.380000          0.117490E-03
      0.385000          0.113828E-03
      0.390000          0.110743E-03
      0.395000          0.108240E-03
      0.400000          0.106311E-03
      0.405000          0.104937E-03
      0.410000          0.104088E-03
      0.415000          0.103727E-03
      0.420000          0.103807E-03
      0.425000          0.104277E-03
      0.430000          0.105081E-03
      0.435000          0.106160E-03
      0.440000          0.107453E-03
      0.445000          0.108897E-03
      0.450000          0.110432E-03
      0.455000          0.111998E-03
      0.460000          0.113537E-03
      0.465000          0.114995E-03
      0.470000          0.116322E-03
      0.475000          0.117472E-03
      0.480000          0.118404E-03
      0.485000          0.119084E-03
      0.490000          0.119484E-03
      0.495000          0.119583E-03
      0.500000          0.119369E-03
