 I_abs(s)[cm^-1]/c[mg/ml]
       0.00000          0.143369E-01
      0.500000E-02      0.142826E-01
      0.100000E-01      0.141209E-01
      0.150000E-01      0.138557E-01
      0.200000E-01      0.134935E-01
      0.250000E-01      0.130428E-01
      0.300000E-01      0.125141E-01
      0.350000E-01      0.119191E-01
      0.400000E-01      0.112708E-01
      0.450000E-01      0.105825E-01
      0.500000E-01      0.986763E-02
      0.550000E-01      0.913926E-02
      0.600000E-01      0.840972E-02
      0.650000E-01      0.769022E-02
      0.700000E-01      0.699068E-02
      0.750000E-01      0.631946E-02
      0.800000E-01      0.568335E-02
      0.850000E-01      0.508750E-02
      0.900000E-01      0.453547E-02
      0.950000E-01      0.402935E-02
      0.100000          0.356988E-02
      0.105000          0.315666E-02
      0.110000          0.278832E-02
      0.115000          0.246272E-02
      0.120000          0.217716E-02
      0.125000          0.192856E-02
      0.130000          0.171360E-02
      0.135000          0.152887E-02
      0.140000          0.137097E-02
      0.145000          0.123663E-02
      0.150000          0.112271E-02
      0.155000          0.102632E-02
      0.160000          0.944779E-03
      0.165000          0.875668E-03
      0.170000          0.816824E-03
      0.175000          0.766334E-03
      0.180000          0.722533E-03
      0.185000          0.683987E-03
      0.190000          0.649490E-03
      0.195000          0.618039E-03
      0.200000          0.588829E-03
      0.205000          0.561227E-03
      0.210000          0.534761E-03
      0.215000          0.509097E-03
      0.220000          0.484019E-03
      0.225000          0.459412E-03
      0.230000          0.435239E-03
      0.235000          0.411519E-03
      0.240000          0.388314E-03
      0.245000          0.365713E-03
      0.250000          0.343812E-03
      0.255000          0.322711E-03
      0.260000          0.302505E-03
      0.265000          0.283273E-03
      0.270000          0.265084E-03
      0.275000          0.247988E-03
      0.280000          0.232025E-03
      0.285000          0.217217E-03
      0.290000          0.203575E-03
      0.295000          0.191100E-03
      0.300000          0.179782E-03
      0.305000          0.169600E-03
      0.310000          0.160523E-03
      0.315000          0.152509E-03
      0.320000          0.145506E-03
      0.325000          0.139450E-03
      0.330000          0.134267E-03
      0.335000          0.129873E-03
      0.340000          0.126176E-03
      0.345000          0.123083E-03
      0.350000          0.120498E-03
      0.355000          0.118326E-03
      0.360000          0.116484E-03
      0.365000          0.114894E-03
      0.370000          0.113495E-03
      0.375000          0.112240E-03
      0.380000          0.111097E-03
      0.385000          0.110053E-03
      0.390000          0.109106E-03
      0.395000          0.108268E-03
      0.400000          0.107557E-03
      0.405000          0.106999E-03
      0.410000          0.106617E-03
      0.415000          0.106432E-03
      0.420000          0.106460E-03
      0.425000          0.106707E-03
      0.430000          0.107166E-03
      0.435000          0.107824E-03
      0.440000          0.108652E-03
      0.445000          0.109615E-03
      0.450000          0.110671E-03
      0.455000          0.111771E-03
      0.460000          0.112867E-03
      0.465000          0.113910E-03
      0.470000          0.114857E-03
      0.475000          0.115669E-03
      0.480000          0.116316E-03
      0.485000          0.116776E-03
      0.490000          0.117037E-03
      0.495000          0.117093E-03
      0.500000          0.116950E-03
