 I_abs(s)[cm^-1]/c[mg/ml]
       0.00000          0.140154E-01
      0.500000E-02      0.139668E-01
      0.100000E-01      0.138223E-01
      0.150000E-01      0.135851E-01
      0.200000E-01      0.132606E-01
      0.250000E-01      0.128562E-01
      0.300000E-01      0.123806E-01
      0.350000E-01      0.118441E-01
      0.400000E-01      0.112576E-01
      0.450000E-01      0.106330E-01
      0.500000E-01      0.998180E-02
      0.550000E-01      0.931571E-02
      0.600000E-01      0.864571E-02
      0.650000E-01      0.798194E-02
      0.700000E-01      0.733347E-02
      0.750000E-01      0.670805E-02
      0.800000E-01      0.611206E-02
      0.850000E-01      0.555039E-02
      0.900000E-01      0.502651E-02
      0.950000E-01      0.454248E-02
      0.100000          0.409910E-02
      0.105000          0.369602E-02
      0.110000          0.333197E-02
      0.115000          0.300491E-02
      0.120000          0.271223E-02
      0.125000          0.245098E-02
      0.130000          0.221799E-02
      0.135000          0.201009E-02
      0.140000          0.182418E-02
      0.145000          0.165739E-02
      0.150000          0.150712E-02
      0.155000          0.137109E-02
      0.160000          0.124737E-02
      0.165000          0.113438E-02
      0.170000          0.103085E-02
      0.175000          0.935793E-03
      0.180000          0.848482E-03
      0.185000          0.768366E-03
      0.190000          0.695044E-03
      0.195000          0.628213E-03
      0.200000          0.567623E-03
      0.205000          0.513046E-03
      0.210000          0.464248E-03
      0.215000          0.420971E-03
      0.220000          0.382922E-03
      0.225000          0.349766E-03
      0.230000          0.321134E-03
      0.235000          0.296623E-03
      0.240000          0.275810E-03
      0.245000          0.258259E-03
      0.250000          0.243538E-03
      0.255000          0.231223E-03
      0.260000          0.220916E-03
      0.265000          0.212247E-03
      0.270000          0.204885E-03
      0.275000          0.198540E-03
      0.280000          0.192963E-03
      0.285000          0.187952E-03
      0.290000          0.183344E-03
      0.295000          0.179017E-03
      0.300000          0.174885E-03
      0.305000          0.170891E-03
      0.310000          0.167005E-03
      0.315000          0.163217E-03
      0.320000          0.159532E-03
      0.325000          0.155967E-03
      0.330000          0.152545E-03
      0.335000          0.149291E-03
      0.340000          0.146230E-03
      0.345000          0.143383E-03
      0.350000          0.140767E-03
      0.355000          0.138389E-03
      0.360000          0.136252E-03
      0.365000          0.134349E-03
      0.370000          0.132668E-03
      0.375000          0.131189E-03
      0.380000          0.129887E-03
      0.385000          0.128734E-03
      0.390000          0.127698E-03
      0.395000          0.126749E-03
      0.400000          0.125855E-03
      0.405000          0.124988E-03
      0.410000          0.124123E-03
      0.415000          0.123239E-03
      0.420000          0.122321E-03
      0.425000          0.121356E-03
      0.430000          0.120339E-03
      0.435000          0.119268E-03
      0.440000          0.118145E-03
      0.445000          0.116975E-03
      0.450000          0.115765E-03
      0.455000          0.114523E-03
      0.460000          0.113256E-03
      0.465000          0.111972E-03
      0.470000          0.110676E-03
      0.475000          0.109372E-03
      0.480000          0.108061E-03
      0.485000          0.106743E-03
      0.490000          0.105414E-03
      0.495000          0.104073E-03
      0.500000          0.102713E-03
