 I_abs(s)[cm^-1]/c[mg/ml]
       0.00000          0.139764E-01
      0.500000E-02      0.139255E-01
      0.100000E-01      0.137739E-01
      0.150000E-01      0.135251E-01
      0.200000E-01      0.131850E-01
      0.250000E-01      0.127610E-01
      0.300000E-01      0.122628E-01
      0.350000E-01      0.117009E-01
      0.400000E-01      0.110869E-01
      0.450000E-01      0.104332E-01
      0.500000E-01      0.975188E-02
      0.550000E-01      0.905516E-02
      0.600000E-01      0.835450E-02
      0.650000E-01      0.766053E-02
      0.700000E-01      0.698275E-02
      0.750000E-01      0.632941E-02
      0.800000E-01      0.570735E-02
      0.850000E-01      0.512199E-02
      0.900000E-01      0.457736E-02
      0.950000E-01      0.407610E-02
      0.100000          0.361962E-02
      0.105000          0.320817E-02
      0.110000          0.284105E-02
      0.115000          0.251668E-02
      0.120000          0.223285E-02
      0.125000          0.198679E-02
      0.130000          0.177536E-02
      0.135000          0.159516E-02
      0.140000          0.144265E-02
      0.145000          0.131428E-02
      0.150000          0.120653E-02
      0.155000          0.111604E-02
      0.160000          0.103964E-02
      0.165000          0.974427E-03
      0.170000          0.917783E-03
      0.175000          0.867430E-03
      0.180000          0.821439E-03
      0.185000          0.778241E-03
      0.190000          0.736624E-03
      0.195000          0.695719E-03
      0.200000          0.654976E-03
      0.205000          0.614133E-03
      0.210000          0.573174E-03
      0.215000          0.532281E-03
      0.220000          0.491786E-03
      0.225000          0.452121E-03
      0.230000          0.413765E-03
      0.235000          0.377202E-03
      0.240000          0.342884E-03
      0.245000          0.311194E-03
      0.250000          0.282429E-03
      0.255000          0.256782E-03
      0.260000          0.234336E-03
      0.265000          0.215071E-03
      0.270000          0.198869E-03
      0.275000          0.185528E-03
      0.280000          0.174781E-03
      0.285000          0.166314E-03
      0.290000          0.159785E-03
      0.295000          0.154846E-03
      0.300000          0.151152E-03
      0.305000          0.148384E-03
      0.310000          0.146251E-03
      0.315000          0.144503E-03
      0.320000          0.142934E-03
      0.325000          0.141381E-03
      0.330000          0.139729E-03
      0.335000          0.137902E-03
      0.340000          0.135864E-03
      0.345000          0.133611E-03
      0.350000          0.131168E-03
      0.355000          0.128580E-03
      0.360000          0.125908E-03
      0.365000          0.123223E-03
      0.370000          0.120598E-03
      0.375000          0.118107E-03
      0.380000          0.115814E-03
      0.385000          0.113776E-03
      0.390000          0.112034E-03
      0.395000          0.110615E-03
      0.400000          0.109526E-03
      0.405000          0.108761E-03
      0.410000          0.108296E-03
      0.415000          0.108093E-03
      0.420000          0.108104E-03
      0.425000          0.108272E-03
      0.430000          0.108537E-03
      0.435000          0.108839E-03
      0.440000          0.109120E-03
      0.445000          0.109329E-03
      0.450000          0.109425E-03
      0.455000          0.109375E-03
      0.460000          0.109159E-03
      0.465000          0.108768E-03
      0.470000          0.108203E-03
      0.475000          0.107474E-03
      0.480000          0.106599E-03
      0.485000          0.105599E-03
      0.490000          0.104502E-03
      0.495000          0.103333E-03
      0.500000          0.102120E-03
