 I_abs(s)[cm^-1]/c[mg/ml]
       0.00000          0.143212E-01
      0.500000E-02      0.142758E-01
      0.100000E-01      0.141407E-01
      0.150000E-01      0.139185E-01
      0.200000E-01      0.136137E-01
      0.250000E-01      0.132323E-01
      0.300000E-01      0.127817E-01
      0.350000E-01      0.122705E-01
      0.400000E-01      0.117081E-01
      0.450000E-01      0.111044E-01
      0.500000E-01      0.104698E-01
      0.550000E-01      0.981464E-02
      0.600000E-01      0.914886E-02
      0.650000E-01      0.848202E-02
      0.700000E-01      0.782288E-02
      0.750000E-01      0.717930E-02
      0.800000E-01      0.655808E-02
      0.850000E-01      0.596487E-02
      0.900000E-01      0.540416E-02
      0.950000E-01      0.487921E-02
      0.100000          0.439217E-02
      0.105000          0.394411E-02
      0.110000          0.353514E-02
      0.115000          0.316450E-02
      0.120000          0.283077E-02
      0.125000          0.253194E-02
      0.130000          0.226560E-02
      0.135000          0.202906E-02
      0.140000          0.181951E-02
      0.145000          0.163409E-02
      0.150000          0.147002E-02
      0.155000          0.132464E-02
      0.160000          0.119554E-02
      0.165000          0.108052E-02
      0.170000          0.977638E-03
      0.175000          0.885249E-03
      0.180000          0.801954E-03
      0.185000          0.726602E-03
      0.190000          0.658262E-03
      0.195000          0.596193E-03
      0.200000          0.539812E-03
      0.205000          0.488660E-03
      0.210000          0.442369E-03
      0.215000          0.400641E-03
      0.220000          0.363214E-03
      0.225000          0.329851E-03
      0.230000          0.300320E-03
      0.235000          0.274384E-03
      0.240000          0.251797E-03
      0.245000          0.232300E-03
      0.250000          0.215621E-03
      0.255000          0.201482E-03
      0.260000          0.189598E-03
      0.265000          0.179684E-03
      0.270000          0.171467E-03
      0.275000          0.164682E-03
      0.280000          0.159084E-03
      0.285000          0.154451E-03
      0.290000          0.150585E-03
      0.295000          0.147316E-03
      0.300000          0.144502E-03
      0.305000          0.142027E-03
      0.310000          0.139804E-03
      0.315000          0.137767E-03
      0.320000          0.135872E-03
      0.325000          0.134092E-03
      0.330000          0.132416E-03
      0.335000          0.130839E-03
      0.340000          0.129368E-03
      0.345000          0.128010E-03
      0.350000          0.126774E-03
      0.355000          0.125668E-03
      0.360000          0.124698E-03
      0.365000          0.123865E-03
      0.370000          0.123164E-03
      0.375000          0.122588E-03
      0.380000          0.122122E-03
      0.385000          0.121749E-03
      0.390000          0.121449E-03
      0.395000          0.121198E-03
      0.400000          0.120972E-03
      0.405000          0.120747E-03
      0.410000          0.120499E-03
      0.415000          0.120206E-03
      0.420000          0.119850E-03
      0.425000          0.119415E-03
      0.430000          0.118887E-03
      0.435000          0.118260E-03
      0.440000          0.117527E-03
      0.445000          0.116688E-03
      0.450000          0.115746E-03
      0.455000          0.114705E-03
      0.460000          0.113575E-03
      0.465000          0.112365E-03
      0.470000          0.111086E-03
      0.475000          0.109752E-03
      0.480000          0.108376E-03
      0.485000          0.106971E-03
      0.490000          0.105549E-03
      0.495000          0.104123E-03
      0.500000          0.102702E-03
