 I_abs(s)[cm^-1]/c[mg/ml]
       0.00000          0.140622E-01
      0.500000E-02      0.139946E-01
      0.100000E-01      0.137936E-01
      0.150000E-01      0.134653E-01
      0.200000E-01      0.130190E-01
      0.250000E-01      0.124673E-01
      0.300000E-01      0.118255E-01
      0.350000E-01      0.111108E-01
      0.400000E-01      0.103416E-01
      0.450000E-01      0.953680E-02
      0.500000E-01      0.871501E-02
      0.550000E-01      0.789392E-02
      0.600000E-01      0.708966E-02
      0.650000E-01      0.631636E-02
      0.700000E-01      0.558576E-02
      0.750000E-01      0.490700E-02
      0.800000E-01      0.428656E-02
      0.850000E-01      0.372834E-02
      0.900000E-01      0.323375E-02
      0.950000E-01      0.280205E-02
      0.100000          0.243066E-02
      0.105000          0.211551E-02
      0.110000          0.185148E-02
      0.115000          0.163275E-02
      0.120000          0.145319E-02
      0.125000          0.130668E-02
      0.130000          0.118734E-02
      0.135000          0.108981E-02
      0.140000          0.100932E-02
      0.145000          0.941794E-03
      0.150000          0.883917E-03
      0.155000          0.833072E-03
      0.160000          0.787303E-03
      0.165000          0.745236E-03
      0.170000          0.705980E-03
      0.175000          0.669026E-03
      0.180000          0.634141E-03
      0.185000          0.601279E-03
      0.190000          0.570498E-03
      0.195000          0.541891E-03
      0.200000          0.515539E-03
      0.205000          0.491477E-03
      0.210000          0.469673E-03
      0.215000          0.450025E-03
      0.220000          0.432364E-03
      0.225000          0.416465E-03
      0.230000          0.402069E-03
      0.235000          0.388895E-03
      0.240000          0.376667E-03
      0.245000          0.365129E-03
      0.250000          0.354059E-03
      0.255000          0.343282E-03
      0.260000          0.332678E-03
      0.265000          0.322180E-03
      0.270000          0.311775E-03
      0.275000          0.301499E-03
      0.280000          0.291422E-03
      0.285000          0.281645E-03
      0.290000          0.272279E-03
      0.295000          0.263438E-03
      0.300000          0.255227E-03
      0.305000          0.247729E-03
      0.310000          0.240995E-03
      0.315000          0.235046E-03
      0.320000          0.229864E-03
      0.325000          0.225396E-03
      0.330000          0.221555E-03
      0.335000          0.218229E-03
      0.340000          0.215286E-03
      0.345000          0.212584E-03
      0.350000          0.209980E-03
      0.355000          0.207340E-03
      0.360000          0.204546E-03
      0.365000          0.201503E-03
      0.370000          0.198144E-03
      0.375000          0.194433E-03
      0.380000          0.190364E-03
      0.385000          0.185961E-03
      0.390000          0.181275E-03
      0.395000          0.176377E-03
      0.400000          0.171354E-03
      0.405000          0.166303E-03
      0.410000          0.161319E-03
      0.415000          0.156497E-03
      0.420000          0.151921E-03
      0.425000          0.147658E-03
      0.430000          0.143762E-03
      0.435000          0.140265E-03
      0.440000          0.137179E-03
      0.445000          0.134498E-03
      0.450000          0.132199E-03
      0.455000          0.130244E-03
      0.460000          0.128584E-03
      0.465000          0.127163E-03
      0.470000          0.125924E-03
      0.475000          0.124806E-03
      0.480000          0.123755E-03
      0.485000          0.122722E-03
      0.490000          0.121666E-03
      0.495000          0.120555E-03
      0.500000          0.119368E-03
