 I_abs(s)[cm^-1]/c[mg/ml]
       0.00000          0.136589E-01
      0.500000E-02      0.135959E-01
      0.100000E-01      0.134088E-01
      0.150000E-01      0.131042E-01
      0.200000E-01      0.126920E-01
      0.250000E-01      0.121856E-01
      0.300000E-01      0.116010E-01
      0.350000E-01      0.109558E-01
      0.400000E-01      0.102684E-01
      0.450000E-01      0.955704E-02
      0.500000E-01      0.883907E-02
      0.550000E-01      0.813020E-02
      0.600000E-01      0.744393E-02
      0.650000E-01      0.679115E-02
      0.700000E-01      0.617995E-02
      0.750000E-01      0.561562E-02
      0.800000E-01      0.510078E-02
      0.850000E-01      0.463571E-02
      0.900000E-01      0.421872E-02
      0.950000E-01      0.384659E-02
      0.100000          0.351510E-02
      0.105000          0.321946E-02
      0.110000          0.295473E-02
      0.115000          0.271618E-02
      0.120000          0.249951E-02
      0.125000          0.230108E-02
      0.130000          0.211793E-02
      0.135000          0.194783E-02
      0.140000          0.178919E-02
      0.145000          0.164098E-02
      0.150000          0.150258E-02
      0.155000          0.137365E-02
      0.160000          0.125403E-02
      0.165000          0.114358E-02
      0.170000          0.104215E-02
      0.175000          0.949470E-03
      0.180000          0.865191E-03
      0.185000          0.788835E-03
      0.190000          0.719837E-03
      0.195000          0.657568E-03
      0.200000          0.601372E-03
      0.205000          0.550608E-03
      0.210000          0.504671E-03
      0.215000          0.463020E-03
      0.220000          0.425191E-03
      0.225000          0.390795E-03
      0.230000          0.359519E-03
      0.235000          0.331111E-03
      0.240000          0.305371E-03
      0.245000          0.282131E-03
      0.250000          0.261245E-03
      0.255000          0.242577E-03
      0.260000          0.225992E-03
      0.265000          0.211356E-03
      0.270000          0.198526E-03
      0.275000          0.187361E-03
      0.280000          0.177717E-03
      0.285000          0.169449E-03
      0.290000          0.162419E-03
      0.295000          0.156494E-03
      0.300000          0.151545E-03
      0.305000          0.147451E-03
      0.310000          0.144095E-03
      0.315000          0.141366E-03
      0.320000          0.139158E-03
      0.325000          0.137369E-03
      0.330000          0.135903E-03
      0.335000          0.134671E-03
      0.340000          0.133593E-03
      0.345000          0.132601E-03
      0.350000          0.131639E-03
      0.355000          0.130668E-03
      0.360000          0.129662E-03
      0.365000          0.128612E-03
      0.370000          0.127521E-03
      0.375000          0.126406E-03
      0.380000          0.125290E-03
      0.385000          0.124202E-03
      0.390000          0.123172E-03
      0.395000          0.122227E-03
      0.400000          0.121390E-03
      0.405000          0.120677E-03
      0.410000          0.120093E-03
      0.415000          0.119637E-03
      0.420000          0.119299E-03
      0.425000          0.119059E-03
      0.430000          0.118895E-03
      0.435000          0.118779E-03
      0.440000          0.118682E-03
      0.445000          0.118572E-03
      0.450000          0.118420E-03
      0.455000          0.118200E-03
      0.460000          0.117887E-03
      0.465000          0.117460E-03
      0.470000          0.116904E-03
      0.475000          0.116208E-03
      0.480000          0.115363E-03
      0.485000          0.114371E-03
      0.490000          0.113234E-03
      0.495000          0.111963E-03
      0.500000          0.110572E-03
