 I_abs(s)[cm^-1]/c[mg/ml]
       0.00000          0.142032E-01
      0.500000E-02      0.141522E-01
      0.100000E-01      0.140006E-01
      0.150000E-01      0.137519E-01
      0.200000E-01      0.134121E-01
      0.250000E-01      0.129892E-01
      0.300000E-01      0.124928E-01
      0.350000E-01      0.119340E-01
      0.400000E-01      0.113247E-01
      0.450000E-01      0.106776E-01
      0.500000E-01      0.100051E-01
      0.550000E-01      0.931969E-02
      0.600000E-01      0.863281E-02
      0.650000E-01      0.795507E-02
      0.700000E-01      0.729576E-02
      0.750000E-01      0.666273E-02
      0.800000E-01      0.606225E-02
      0.850000E-01      0.549898E-02
      0.900000E-01      0.497603E-02
      0.950000E-01      0.449502E-02
      0.100000          0.405626E-02
      0.105000          0.365891E-02
      0.110000          0.330120E-02
      0.115000          0.298064E-02
      0.120000          0.269423E-02
      0.125000          0.243872E-02
      0.130000          0.221071E-02
      0.135000          0.200689E-02
      0.140000          0.182410E-02
      0.145000          0.165950E-02
      0.150000          0.151056E-02
      0.155000          0.137511E-02
      0.160000          0.125137E-02
      0.165000          0.113792E-02
      0.170000          0.103364E-02
      0.175000          0.937692E-03
      0.180000          0.849459E-03
      0.185000          0.768490E-03
      0.190000          0.694446E-03
      0.195000          0.627061E-03
      0.200000          0.566096E-03
      0.205000          0.511312E-03
      0.210000          0.462451E-03
      0.215000          0.419218E-03
      0.220000          0.381280E-03
      0.225000          0.348265E-03
      0.230000          0.319769E-03
      0.235000          0.295364E-03
      0.240000          0.274606E-03
      0.245000          0.257055E-03
      0.250000          0.242276E-03
      0.255000          0.229856E-03
      0.260000          0.219408E-03
      0.265000          0.210581E-03
      0.270000          0.203061E-03
      0.275000          0.196576E-03
      0.280000          0.190893E-03
      0.285000          0.185820E-03
      0.290000          0.181203E-03
      0.295000          0.176922E-03
      0.300000          0.172888E-03
      0.305000          0.169037E-03
      0.310000          0.165331E-03
      0.315000          0.161745E-03
      0.320000          0.158270E-03
      0.325000          0.154908E-03
      0.330000          0.151666E-03
      0.335000          0.148554E-03
      0.340000          0.145585E-03
      0.345000          0.142769E-03
      0.350000          0.140115E-03
      0.355000          0.137627E-03
      0.360000          0.135309E-03
      0.365000          0.133155E-03
      0.370000          0.131159E-03
      0.375000          0.129311E-03
      0.380000          0.127597E-03
      0.385000          0.126002E-03
      0.390000          0.124510E-03
      0.395000          0.123104E-03
      0.400000          0.121766E-03
      0.405000          0.120481E-03
      0.410000          0.119235E-03
      0.415000          0.118014E-03
      0.420000          0.116807E-03
      0.425000          0.115605E-03
      0.430000          0.114400E-03
      0.435000          0.113184E-03
      0.440000          0.111954E-03
      0.445000          0.110705E-03
      0.450000          0.109435E-03
      0.455000          0.108140E-03
      0.460000          0.106820E-03
      0.465000          0.105476E-03
      0.470000          0.104109E-03
      0.475000          0.102723E-03
      0.480000          0.101322E-03
      0.485000          0.999145E-04
      0.490000          0.985100E-04
      0.495000          0.971203E-04
      0.500000          0.957593E-04
