 I_abs(s)[cm^-1]/c[mg/ml]
       0.00000          0.132085E-01
      0.500000E-02      0.131122E-01
      0.100000E-01      0.128275E-01
      0.150000E-01      0.123671E-01
      0.200000E-01      0.117509E-01
      0.250000E-01      0.110050E-01
      0.300000E-01      0.101597E-01
      0.350000E-01      0.924795E-02
      0.400000E-01      0.830309E-02
      0.450000E-01      0.735696E-02
      0.500000E-01      0.643832E-02
      0.550000E-01      0.557145E-02
      0.600000E-01      0.477529E-02
      0.650000E-01      0.406301E-02
      0.700000E-01      0.344196E-02
      0.750000E-01      0.291414E-02
      0.800000E-01      0.247687E-02
      0.850000E-01      0.212374E-02
      0.900000E-01      0.184570E-02
      0.950000E-01      0.163208E-02
      0.100000          0.147160E-02
      0.105000          0.135320E-02
      0.110000          0.126668E-02
      0.115000          0.120313E-02
      0.120000          0.115518E-02
      0.125000          0.111700E-02
      0.130000          0.108424E-02
      0.135000          0.105385E-02
      0.140000          0.102380E-02
      0.145000          0.992889E-03
      0.150000          0.960484E-03
      0.155000          0.926349E-03
      0.160000          0.890516E-03
      0.165000          0.853201E-03
      0.170000          0.814748E-03
      0.175000          0.775615E-03
      0.180000          0.736354E-03
      0.185000          0.697595E-03
      0.190000          0.660021E-03
      0.195000          0.624323E-03
      0.200000          0.591153E-03
      0.205000          0.561061E-03
      0.210000          0.534444E-03
      0.215000          0.511498E-03
      0.220000          0.492195E-03
      0.225000          0.476287E-03
      0.230000          0.463322E-03
      0.235000          0.452695E-03
      0.240000          0.443712E-03
      0.245000          0.435658E-03
      0.250000          0.427870E-03
      0.255000          0.419792E-03
      0.260000          0.411026E-03
      0.265000          0.401347E-03
      0.270000          0.390707E-03
      0.275000          0.379215E-03
      0.280000          0.367097E-03
      0.285000          0.354653E-03
      0.290000          0.342206E-03
      0.295000          0.330058E-03
      0.300000          0.318454E-03
      0.305000          0.307560E-03
      0.310000          0.297455E-03
      0.315000          0.288137E-03
      0.320000          0.279538E-03
      0.325000          0.271551E-03
      0.330000          0.264053E-03
      0.335000          0.256934E-03
      0.340000          0.250108E-03
      0.345000          0.243534E-03
      0.350000          0.237211E-03
      0.355000          0.231174E-03
      0.360000          0.225486E-03
      0.365000          0.220216E-03
      0.370000          0.215426E-03
      0.375000          0.211154E-03
      0.380000          0.207407E-03
      0.385000          0.204150E-03
      0.390000          0.201313E-03
      0.395000          0.198793E-03
      0.400000          0.196469E-03
      0.405000          0.194212E-03
      0.410000          0.191899E-03
      0.415000          0.189428E-03
      0.420000          0.186726E-03
      0.425000          0.183752E-03
      0.430000          0.180502E-03
      0.435000          0.176999E-03
      0.440000          0.173295E-03
      0.445000          0.169455E-03
      0.450000          0.165549E-03
      0.455000          0.161644E-03
      0.460000          0.157799E-03
      0.465000          0.154052E-03
      0.470000          0.150426E-03
      0.475000          0.146926E-03
      0.480000          0.143541E-03
      0.485000          0.140250E-03
      0.490000          0.137023E-03
      0.495000          0.133832E-03
      0.500000          0.130651E-03
