 I_abs(s)[cm^-1]/c[mg/ml]
       0.00000          0.140154E-01
      0.500000E-02      0.139649E-01
      0.100000E-01      0.138146E-01
      0.150000E-01      0.135682E-01
      0.200000E-01      0.132315E-01
      0.250000E-01      0.128122E-01
      0.300000E-01      0.123200E-01
      0.350000E-01      0.117658E-01
      0.400000E-01      0.111614E-01
      0.450000E-01      0.105193E-01
      0.500000E-01      0.985197E-02
      0.550000E-01      0.917170E-02
      0.600000E-01      0.849006E-02
      0.650000E-01      0.781764E-02
      0.700000E-01      0.716381E-02
      0.750000E-01      0.653649E-02
      0.800000E-01      0.594205E-02
      0.850000E-01      0.538525E-02
      0.900000E-01      0.486930E-02
      0.950000E-01      0.439588E-02
      0.100000          0.396536E-02
      0.105000          0.357690E-02
      0.110000          0.322869E-02
      0.115000          0.291819E-02
      0.120000          0.264231E-02
      0.125000          0.239765E-02
      0.130000          0.218068E-02
      0.135000          0.198792E-02
      0.140000          0.181608E-02
      0.145000          0.166211E-02
      0.150000          0.152336E-02
      0.155000          0.139753E-02
      0.160000          0.128273E-02
      0.165000          0.117745E-02
      0.170000          0.108052E-02
      0.175000          0.991049E-03
      0.180000          0.908401E-03
      0.185000          0.832114E-03
      0.190000          0.761852E-03
      0.195000          0.697357E-03
      0.200000          0.638403E-03
      0.205000          0.584768E-03
      0.210000          0.536211E-03
      0.215000          0.492458E-03
      0.220000          0.453202E-03
      0.225000          0.418102E-03
      0.230000          0.386790E-03
      0.235000          0.358886E-03
      0.240000          0.334006E-03
      0.245000          0.311777E-03
      0.250000          0.291847E-03
      0.255000          0.273893E-03
      0.260000          0.257626E-03
      0.265000          0.242798E-03
      0.270000          0.229201E-03
      0.275000          0.216663E-03
      0.280000          0.205052E-03
      0.285000          0.194262E-03
      0.290000          0.184218E-03
      0.295000          0.174865E-03
      0.300000          0.166166E-03
      0.305000          0.158096E-03
      0.310000          0.150640E-03
      0.315000          0.143790E-03
      0.320000          0.137541E-03
      0.325000          0.131890E-03
      0.330000          0.126834E-03
      0.335000          0.122371E-03
      0.340000          0.118495E-03
      0.345000          0.115197E-03
      0.350000          0.112462E-03
      0.355000          0.110271E-03
      0.360000          0.108597E-03
      0.365000          0.107406E-03
      0.370000          0.106655E-03
      0.375000          0.106296E-03
      0.380000          0.106272E-03
      0.385000          0.106520E-03
      0.390000          0.106975E-03
      0.395000          0.107567E-03
      0.400000          0.108230E-03
      0.405000          0.108898E-03
      0.410000          0.109513E-03
      0.415000          0.110022E-03
      0.420000          0.110386E-03
      0.425000          0.110574E-03
      0.430000          0.110569E-03
      0.435000          0.110366E-03
      0.440000          0.109972E-03
      0.445000          0.109403E-03
      0.450000          0.108687E-03
      0.455000          0.107856E-03
      0.460000          0.106947E-03
      0.465000          0.105999E-03
      0.470000          0.105048E-03
      0.475000          0.104128E-03
      0.480000          0.103268E-03
      0.485000          0.102488E-03
      0.490000          0.101800E-03
      0.495000          0.101210E-03
      0.500000          0.100714E-03
