 I_abs(s)[cm^-1]/c[mg/ml]
       0.00000          0.138986E-01
      0.500000E-02      0.138418E-01
      0.100000E-01      0.136728E-01
      0.150000E-01      0.133965E-01
      0.200000E-01      0.130207E-01
      0.250000E-01      0.125555E-01
      0.300000E-01      0.120134E-01
      0.350000E-01      0.114085E-01
      0.400000E-01      0.107556E-01
      0.450000E-01      0.100701E-01
      0.500000E-01      0.936699E-02
      0.550000E-01      0.866048E-02
      0.600000E-01      0.796354E-02
      0.650000E-01      0.728743E-02
      0.700000E-01      0.664150E-02
      0.750000E-01      0.603300E-02
      0.800000E-01      0.546705E-02
      0.850000E-01      0.494675E-02
      0.900000E-01      0.447327E-02
      0.950000E-01      0.404616E-02
      0.100000          0.366357E-02
      0.105000          0.332263E-02
      0.110000          0.301970E-02
      0.115000          0.275077E-02
      0.120000          0.251164E-02
      0.125000          0.229824E-02
      0.130000          0.210675E-02
      0.135000          0.193378E-02
      0.140000          0.177642E-02
      0.145000          0.163229E-02
      0.150000          0.149951E-02
      0.155000          0.137667E-02
      0.160000          0.126277E-02
      0.165000          0.115711E-02
      0.170000          0.105922E-02
      0.175000          0.968812E-03
      0.180000          0.885660E-03
      0.185000          0.809570E-03
      0.190000          0.740330E-03
      0.195000          0.677683E-03
      0.200000          0.621314E-03
      0.205000          0.570847E-03
      0.210000          0.525856E-03
      0.215000          0.485875E-03
      0.220000          0.450418E-03
      0.225000          0.418996E-03
      0.230000          0.391133E-03
      0.235000          0.366377E-03
      0.240000          0.344315E-03
      0.245000          0.324576E-03
      0.250000          0.306832E-03
      0.255000          0.290802E-03
      0.260000          0.276245E-03
      0.265000          0.262958E-03
      0.270000          0.250773E-03
      0.275000          0.239549E-03
      0.280000          0.229171E-03
      0.285000          0.219545E-03
      0.290000          0.210593E-03
      0.295000          0.202254E-03
      0.300000          0.194479E-03
      0.305000          0.187230E-03
      0.310000          0.180481E-03
      0.315000          0.174211E-03
      0.320000          0.168403E-03
      0.325000          0.163045E-03
      0.330000          0.158126E-03
      0.335000          0.153630E-03
      0.340000          0.149540E-03
      0.345000          0.145834E-03
      0.350000          0.142482E-03
      0.355000          0.139450E-03
      0.360000          0.136698E-03
      0.365000          0.134183E-03
      0.370000          0.131861E-03
      0.375000          0.129688E-03
      0.380000          0.127623E-03
      0.385000          0.125633E-03
      0.390000          0.123693E-03
      0.395000          0.121787E-03
      0.400000          0.119910E-03
      0.405000          0.118068E-03
      0.410000          0.116276E-03
      0.415000          0.114559E-03
      0.420000          0.112945E-03
      0.425000          0.111466E-03
      0.430000          0.110150E-03
      0.435000          0.109024E-03
      0.440000          0.108105E-03
      0.445000          0.107403E-03
      0.450000          0.106912E-03
      0.455000          0.106617E-03
      0.460000          0.106490E-03
      0.465000          0.106490E-03
      0.470000          0.106570E-03
      0.475000          0.106675E-03
      0.480000          0.106747E-03
      0.485000          0.106730E-03
      0.490000          0.106571E-03
      0.495000          0.106228E-03
      0.500000          0.105666E-03
