 I_abs(s)[cm^-1]/c[mg/ml]
       0.00000          0.142739E-01
      0.500000E-02      0.142205E-01
      0.100000E-01      0.140617E-01
      0.150000E-01      0.138009E-01
      0.200000E-01      0.134440E-01
      0.250000E-01      0.129989E-01
      0.300000E-01      0.124753E-01
      0.350000E-01      0.118841E-01
      0.400000E-01      0.112375E-01
      0.450000E-01      0.105482E-01
      0.500000E-01      0.982917E-02
      0.550000E-01      0.909329E-02
      0.600000E-01      0.835284E-02
      0.650000E-01      0.761928E-02
      0.700000E-01      0.690298E-02
      0.750000E-01      0.621297E-02
      0.800000E-01      0.555683E-02
      0.850000E-01      0.494060E-02
      0.900000E-01      0.436876E-02
      0.950000E-01      0.384426E-02
      0.100000          0.336865E-02
      0.105000          0.294217E-02
      0.110000          0.256394E-02
      0.115000          0.223212E-02
      0.120000          0.194412E-02
      0.125000          0.169677E-02
      0.130000          0.148651E-02
      0.135000          0.130957E-02
      0.140000          0.116210E-02
      0.145000          0.104029E-02
      0.150000          0.940474E-03
      0.155000          0.859226E-03
      0.160000          0.793386E-03
      0.165000          0.740110E-03
      0.170000          0.696877E-03
      0.175000          0.661500E-03
      0.180000          0.632107E-03
      0.185000          0.607132E-03
      0.190000          0.585289E-03
      0.195000          0.565546E-03
      0.200000          0.547098E-03
      0.205000          0.529338E-03
      0.210000          0.511834E-03
      0.215000          0.494299E-03
      0.220000          0.476568E-03
      0.225000          0.458576E-03
      0.230000          0.440333E-03
      0.235000          0.421912E-03
      0.240000          0.403422E-03
      0.245000          0.385000E-03
      0.250000          0.366794E-03
      0.255000          0.348951E-03
      0.260000          0.331608E-03
      0.265000          0.314887E-03
      0.270000          0.298889E-03
      0.275000          0.283691E-03
      0.280000          0.269346E-03
      0.285000          0.255888E-03
      0.290000          0.243329E-03
      0.295000          0.231664E-03
      0.300000          0.220880E-03
      0.305000          0.210952E-03
      0.310000          0.201850E-03
      0.315000          0.193545E-03
      0.320000          0.186004E-03
      0.325000          0.179194E-03
      0.330000          0.173083E-03
      0.335000          0.167639E-03
      0.340000          0.162824E-03
      0.345000          0.158600E-03
      0.350000          0.154921E-03
      0.355000          0.151735E-03
      0.360000          0.148983E-03
      0.365000          0.146600E-03
      0.370000          0.144515E-03
      0.375000          0.142653E-03
      0.380000          0.140939E-03
      0.385000          0.139298E-03
      0.390000          0.137662E-03
      0.395000          0.135970E-03
      0.400000          0.134174E-03
      0.405000          0.132237E-03
      0.410000          0.130137E-03
      0.415000          0.127869E-03
      0.420000          0.125442E-03
      0.425000          0.122879E-03
      0.430000          0.120214E-03
      0.435000          0.117490E-03
      0.440000          0.114756E-03
      0.445000          0.112063E-03
      0.450000          0.109463E-03
      0.455000          0.107001E-03
      0.460000          0.104718E-03
      0.465000          0.102645E-03
      0.470000          0.100805E-03
      0.475000          0.992095E-04
      0.480000          0.978611E-04
      0.485000          0.967526E-04
      0.490000          0.958692E-04
      0.495000          0.951900E-04
      0.500000          0.946895E-04
