 I_abs(s)[cm^-1]/c[mg/ml]
       0.00000          0.145079E-01
      0.500000E-02      0.144527E-01
      0.100000E-01      0.142884E-01
      0.150000E-01      0.140186E-01
      0.200000E-01      0.136495E-01
      0.250000E-01      0.131895E-01
      0.300000E-01      0.126485E-01
      0.350000E-01      0.120381E-01
      0.400000E-01      0.113712E-01
      0.450000E-01      0.106609E-01
      0.500000E-01      0.992107E-02
      0.550000E-01      0.916504E-02
      0.600000E-01      0.840575E-02
      0.650000E-01      0.765523E-02
      0.700000E-01      0.692429E-02
      0.750000E-01      0.622233E-02
      0.800000E-01      0.555717E-02
      0.850000E-01      0.493496E-02
      0.900000E-01      0.436013E-02
      0.950000E-01      0.383549E-02
      0.100000          0.336229E-02
      0.105000          0.294035E-02
      0.110000          0.256829E-02
      0.115000          0.224369E-02
      0.120000          0.196335E-02
      0.125000          0.172347E-02
      0.130000          0.151990E-02
      0.135000          0.134829E-02
      0.140000          0.120433E-02
      0.145000          0.108385E-02
      0.150000          0.982912E-03
      0.155000          0.897977E-03
      0.160000          0.825889E-03
      0.165000          0.763934E-03
      0.170000          0.709840E-03
      0.175000          0.661765E-03
      0.180000          0.618262E-03
      0.185000          0.578243E-03
      0.190000          0.540926E-03
      0.195000          0.505788E-03
      0.200000          0.472512E-03
      0.205000          0.440940E-03
      0.210000          0.411028E-03
      0.215000          0.382807E-03
      0.220000          0.356352E-03
      0.225000          0.331757E-03
      0.230000          0.309111E-03
      0.235000          0.288489E-03
      0.240000          0.269934E-03
      0.245000          0.253460E-03
      0.250000          0.239041E-03
      0.255000          0.226616E-03
      0.260000          0.216089E-03
      0.265000          0.207331E-03
      0.270000          0.200184E-03
      0.275000          0.194469E-03
      0.280000          0.189990E-03
      0.285000          0.186540E-03
      0.290000          0.183907E-03
      0.295000          0.181882E-03
      0.300000          0.180265E-03
      0.305000          0.178868E-03
      0.310000          0.177525E-03
      0.315000          0.176092E-03
      0.320000          0.174454E-03
      0.325000          0.172523E-03
      0.330000          0.170242E-03
      0.335000          0.167583E-03
      0.340000          0.164545E-03
      0.345000          0.161152E-03
      0.350000          0.157450E-03
      0.355000          0.153497E-03
      0.360000          0.149368E-03
      0.365000          0.145138E-03
      0.370000          0.140888E-03
      0.375000          0.136695E-03
      0.380000          0.132626E-03
      0.385000          0.128743E-03
      0.390000          0.125092E-03
      0.395000          0.121708E-03
      0.400000          0.118612E-03
      0.405000          0.115812E-03
      0.410000          0.113305E-03
      0.415000          0.111077E-03
      0.420000          0.109106E-03
      0.425000          0.107364E-03
      0.430000          0.105820E-03
      0.435000          0.104438E-03
      0.440000          0.103185E-03
      0.445000          0.102029E-03
      0.450000          0.100937E-03
      0.455000          0.998835E-04
      0.460000          0.988436E-04
      0.465000          0.977971E-04
      0.470000          0.967279E-04
      0.475000          0.956232E-04
      0.480000          0.944740E-04
      0.485000          0.932742E-04
      0.490000          0.920209E-04
      0.495000          0.907139E-04
      0.500000          0.893553E-04
