 I_abs(s)[cm^-1]/c[mg/ml]
       0.00000          0.144367E-01
      0.500000E-02      0.143400E-01
      0.100000E-01      0.140546E-01
      0.150000E-01      0.135945E-01
      0.200000E-01      0.129818E-01
      0.250000E-01      0.122447E-01
      0.300000E-01      0.114154E-01
      0.350000E-01      0.105274E-01
      0.400000E-01      0.961373E-02
      0.450000E-01      0.870405E-02
      0.500000E-01      0.782358E-02
      0.550000E-01      0.699185E-02
      0.600000E-01      0.622231E-02
      0.650000E-01      0.552252E-02
      0.700000E-01      0.489478E-02
      0.750000E-01      0.433720E-02
      0.800000E-01      0.384483E-02
      0.850000E-01      0.341093E-02
      0.900000E-01      0.302802E-02
      0.950000E-01      0.268881E-02
      0.100000          0.238680E-02
      0.105000          0.211663E-02
      0.110000          0.187416E-02
      0.115000          0.165637E-02
      0.120000          0.146117E-02
      0.125000          0.128707E-02
      0.130000          0.113295E-02
      0.135000          0.997790E-03
      0.140000          0.880563E-03
      0.145000          0.780113E-03
      0.150000          0.695142E-03
      0.155000          0.624239E-03
      0.160000          0.565916E-03
      0.165000          0.518660E-03
      0.170000          0.480976E-03
      0.175000          0.451405E-03
      0.180000          0.428545E-03
      0.185000          0.411057E-03
      0.190000          0.397666E-03
      0.195000          0.387183E-03
      0.200000          0.378522E-03
      0.205000          0.370735E-03
      0.210000          0.363046E-03
      0.215000          0.354883E-03
      0.220000          0.345898E-03
      0.225000          0.335974E-03
      0.230000          0.325204E-03
      0.235000          0.313857E-03
      0.240000          0.302317E-03
      0.245000          0.291026E-03
      0.250000          0.280413E-03
      0.255000          0.270837E-03
      0.260000          0.262542E-03
      0.265000          0.255638E-03
      0.270000          0.250092E-03
      0.275000          0.245745E-03
      0.280000          0.242347E-03
      0.285000          0.239590E-03
      0.290000          0.237157E-03
      0.295000          0.234750E-03
      0.300000          0.232131E-03
      0.305000          0.229127E-03
      0.310000          0.225648E-03
      0.315000          0.221673E-03
      0.320000          0.217242E-03
      0.325000          0.212437E-03
      0.330000          0.207365E-03
      0.335000          0.202136E-03
      0.340000          0.196853E-03
      0.345000          0.191601E-03
      0.350000          0.186443E-03
      0.355000          0.181420E-03
      0.360000          0.176551E-03
      0.365000          0.171843E-03
      0.370000          0.167293E-03
      0.375000          0.162893E-03
      0.380000          0.158636E-03
      0.385000          0.154512E-03
      0.390000          0.150517E-03
      0.395000          0.146648E-03
      0.400000          0.142899E-03
      0.405000          0.139269E-03
      0.410000          0.135752E-03
      0.415000          0.132345E-03
      0.420000          0.129045E-03
      0.425000          0.125853E-03
      0.430000          0.122773E-03
      0.435000          0.119816E-03
      0.440000          0.116998E-03
      0.445000          0.114341E-03
      0.450000          0.111868E-03
      0.455000          0.109602E-03
      0.460000          0.107559E-03
      0.465000          0.105746E-03
      0.470000          0.104155E-03
      0.475000          0.102766E-03
      0.480000          0.101542E-03
      0.485000          0.100437E-03
      0.490000          0.993986E-04
      0.495000          0.983751E-04
      0.500000          0.973219E-04
