 I_abs(s)[cm^-1]/c[mg/ml]
       0.00000          0.143499E-01
      0.500000E-02      0.142944E-01
      0.100000E-01      0.141290E-01
      0.150000E-01      0.138581E-01
      0.200000E-01      0.134886E-01
      0.250000E-01      0.130295E-01
      0.300000E-01      0.124921E-01
      0.350000E-01      0.118889E-01
      0.400000E-01      0.112336E-01
      0.450000E-01      0.105404E-01
      0.500000E-01      0.982322E-02
      0.550000E-01      0.909582E-02
      0.600000E-01      0.837083E-02
      0.650000E-01      0.765967E-02
      0.700000E-01      0.697217E-02
      0.750000E-01      0.631647E-02
      0.800000E-01      0.569885E-02
      0.850000E-01      0.512379E-02
      0.900000E-01      0.459400E-02
      0.950000E-01      0.411062E-02
      0.100000          0.367335E-02
      0.105000          0.328075E-02
      0.110000          0.293042E-02
      0.115000          0.261931E-02
      0.120000          0.234396E-02
      0.125000          0.210066E-02
      0.130000          0.188573E-02
      0.135000          0.169561E-02
      0.140000          0.152699E-02
      0.145000          0.137691E-02
      0.150000          0.124280E-02
      0.155000          0.112244E-02
      0.160000          0.101404E-02
      0.165000          0.916109E-03
      0.170000          0.827490E-03
      0.175000          0.747262E-03
      0.180000          0.674704E-03
      0.185000          0.609240E-03
      0.190000          0.550390E-03
      0.195000          0.497738E-03
      0.200000          0.450896E-03
      0.205000          0.409487E-03
      0.210000          0.373128E-03
      0.215000          0.341423E-03
      0.220000          0.313965E-03
      0.225000          0.290336E-03
      0.230000          0.270117E-03
      0.235000          0.252890E-03
      0.240000          0.238251E-03
      0.245000          0.225817E-03
      0.250000          0.215232E-03
      0.255000          0.206172E-03
      0.260000          0.198350E-03
      0.265000          0.191519E-03
      0.270000          0.185472E-03
      0.275000          0.180039E-03
      0.280000          0.175089E-03
      0.285000          0.170522E-03
      0.290000          0.166267E-03
      0.295000          0.162280E-03
      0.300000          0.158533E-03
      0.305000          0.155013E-03
      0.310000          0.151717E-03
      0.315000          0.148644E-03
      0.320000          0.145797E-03
      0.325000          0.143176E-03
      0.330000          0.140774E-03
      0.335000          0.138583E-03
      0.340000          0.136585E-03
      0.345000          0.134757E-03
      0.350000          0.133074E-03
      0.355000          0.131503E-03
      0.360000          0.130013E-03
      0.365000          0.128571E-03
      0.370000          0.127146E-03
      0.375000          0.125709E-03
      0.380000          0.124238E-03
      0.385000          0.122711E-03
      0.390000          0.121117E-03
      0.395000          0.119446E-03
      0.400000          0.117695E-03
      0.405000          0.115865E-03
      0.410000          0.113961E-03
      0.415000          0.111990E-03
      0.420000          0.109964E-03
      0.425000          0.107892E-03
      0.430000          0.105788E-03
      0.435000          0.103664E-03
      0.440000          0.101535E-03
      0.445000          0.994122E-04
      0.450000          0.973105E-04
      0.455000          0.952429E-04
      0.460000          0.932230E-04
      0.465000          0.912645E-04
      0.470000          0.893813E-04
      0.475000          0.875871E-04
      0.480000          0.858953E-04
      0.485000          0.843190E-04
      0.490000          0.828700E-04
      0.495000          0.815586E-04
      0.500000          0.803933E-04
