 I_abs(s)[cm^-1]/c[mg/ml]
       0.00000          0.145476E-01
      0.500000E-02      0.144800E-01
      0.100000E-01      0.142798E-01
      0.150000E-01      0.139537E-01
      0.200000E-01      0.135128E-01
      0.250000E-01      0.129715E-01
      0.300000E-01      0.123466E-01
      0.350000E-01      0.116565E-01
      0.400000E-01      0.109204E-01
      0.450000E-01      0.101566E-01
      0.500000E-01      0.938246E-02
      0.550000E-01      0.861339E-02
      0.600000E-01      0.786238E-02
      0.650000E-01      0.713989E-02
      0.700000E-01      0.645375E-02
      0.750000E-01      0.580936E-02
      0.800000E-01      0.520992E-02
      0.850000E-01      0.465678E-02
      0.900000E-01      0.414988E-02
      0.950000E-01      0.368803E-02
      0.100000          0.326937E-02
      0.105000          0.289154E-02
      0.110000          0.255198E-02
      0.115000          0.224804E-02
      0.120000          0.197712E-02
      0.125000          0.173666E-02
      0.130000          0.152422E-02
      0.135000          0.133745E-02
      0.140000          0.117411E-02
      0.145000          0.103204E-02
      0.150000          0.909184E-03
      0.155000          0.803575E-03
      0.160000          0.713337E-03
      0.165000          0.636697E-03
      0.170000          0.571985E-03
      0.175000          0.517635E-03
      0.180000          0.472190E-03
      0.185000          0.434299E-03
      0.190000          0.402721E-03
      0.195000          0.376325E-03
      0.200000          0.354090E-03
      0.205000          0.335117E-03
      0.210000          0.318629E-03
      0.215000          0.303973E-03
      0.220000          0.290628E-03
      0.225000          0.278196E-03
      0.230000          0.266397E-03
      0.235000          0.255059E-03
      0.240000          0.244100E-03
      0.245000          0.233508E-03
      0.250000          0.223324E-03
      0.255000          0.213617E-03
      0.260000          0.204474E-03
      0.265000          0.195976E-03
      0.270000          0.188195E-03
      0.275000          0.181184E-03
      0.280000          0.174972E-03
      0.285000          0.169569E-03
      0.290000          0.164959E-03
      0.295000          0.161111E-03
      0.300000          0.157975E-03
      0.305000          0.155491E-03
      0.310000          0.153584E-03
      0.315000          0.152176E-03
      0.320000          0.151182E-03
      0.325000          0.150518E-03
      0.330000          0.150100E-03
      0.335000          0.149852E-03
      0.340000          0.149706E-03
      0.345000          0.149605E-03
      0.350000          0.149505E-03
      0.355000          0.149373E-03
      0.360000          0.149188E-03
      0.365000          0.148937E-03
      0.370000          0.148610E-03
      0.375000          0.148202E-03
      0.380000          0.147701E-03
      0.385000          0.147095E-03
      0.390000          0.146364E-03
      0.395000          0.145484E-03
      0.400000          0.144426E-03
      0.405000          0.143159E-03
      0.410000          0.141657E-03
      0.415000          0.139897E-03
      0.420000          0.137865E-03
      0.425000          0.135557E-03
      0.430000          0.132982E-03
      0.435000          0.130159E-03
      0.440000          0.127118E-03
      0.445000          0.123898E-03
      0.450000          0.120543E-03
      0.455000          0.117098E-03
      0.460000          0.113610E-03
      0.465000          0.110123E-03
      0.470000          0.106675E-03
      0.475000          0.103301E-03
      0.480000          0.100027E-03
      0.485000          0.968737E-04
      0.490000          0.938570E-04
      0.495000          0.909864E-04
      0.500000          0.882674E-04
