 I_abs(s)[cm^-1]/c[mg/ml]
       0.00000          0.147660E-01
      0.500000E-02      0.147183E-01
      0.100000E-01      0.145759E-01
      0.150000E-01      0.143418E-01
      0.200000E-01      0.140206E-01
      0.250000E-01      0.136183E-01
      0.300000E-01      0.131427E-01
      0.350000E-01      0.126026E-01
      0.400000E-01      0.120077E-01
      0.450000E-01      0.113685E-01
      0.500000E-01      0.106957E-01
      0.550000E-01      0.100001E-01
      0.600000E-01      0.929228E-02
      0.650000E-01      0.858233E-02
      0.700000E-01      0.787957E-02
      0.750000E-01      0.719244E-02
      0.800000E-01      0.652832E-02
      0.850000E-01      0.589341E-02
      0.900000E-01      0.529270E-02
      0.950000E-01      0.472994E-02
      0.100000          0.420768E-02
      0.105000          0.372733E-02
      0.110000          0.328929E-02
      0.115000          0.289301E-02
      0.120000          0.253719E-02
      0.125000          0.221990E-02
      0.130000          0.193873E-02
      0.135000          0.169097E-02
      0.140000          0.147368E-02
      0.145000          0.128388E-02
      0.150000          0.111861E-02
      0.155000          0.975047E-03
      0.160000          0.850552E-03
      0.165000          0.742713E-03
      0.170000          0.649379E-03
      0.175000          0.568663E-03
      0.180000          0.498941E-03
      0.185000          0.438830E-03
      0.190000          0.387166E-03
      0.195000          0.342971E-03
      0.200000          0.305423E-03
      0.205000          0.273822E-03
      0.210000          0.247561E-03
      0.215000          0.226098E-03
      0.220000          0.208935E-03
      0.225000          0.195605E-03
      0.230000          0.185656E-03
      0.235000          0.178648E-03
      0.240000          0.174152E-03
      0.245000          0.171748E-03
      0.250000          0.171035E-03
      0.255000          0.171633E-03
      0.260000          0.173187E-03
      0.265000          0.175379E-03
      0.270000          0.177927E-03
      0.275000          0.180590E-03
      0.280000          0.183171E-03
      0.285000          0.185517E-03
      0.290000          0.187512E-03
      0.295000          0.189082E-03
      0.300000          0.190182E-03
      0.305000          0.190796E-03
      0.310000          0.190930E-03
      0.315000          0.190605E-03
      0.320000          0.189853E-03
      0.325000          0.188712E-03
      0.330000          0.187220E-03
      0.335000          0.185418E-03
      0.340000          0.183339E-03
      0.345000          0.181015E-03
      0.350000          0.178471E-03
      0.355000          0.175730E-03
      0.360000          0.172811E-03
      0.365000          0.169729E-03
      0.370000          0.166501E-03
      0.375000          0.163141E-03
      0.380000          0.159666E-03
      0.385000          0.156094E-03
      0.390000          0.152448E-03
      0.395000          0.148749E-03
      0.400000          0.145023E-03
      0.405000          0.141298E-03
      0.410000          0.137601E-03
      0.415000          0.133960E-03
      0.420000          0.130403E-03
      0.425000          0.126954E-03
      0.430000          0.123635E-03
      0.435000          0.120466E-03
      0.440000          0.117461E-03
      0.445000          0.114630E-03
      0.450000          0.111978E-03
      0.455000          0.109506E-03
      0.460000          0.107211E-03
      0.465000          0.105086E-03
      0.470000          0.103119E-03
      0.475000          0.101296E-03
      0.480000          0.996026E-04
      0.485000          0.980199E-04
      0.490000          0.965298E-04
      0.495000          0.951134E-04
      0.500000          0.937519E-04
