 I_abs(s)[cm^-1]/c[mg/ml]
       0.00000          0.137206E-01
      0.500000E-02      0.136393E-01
      0.100000E-01      0.133985E-01
      0.150000E-01      0.130071E-01
      0.200000E-01      0.124795E-01
      0.250000E-01      0.118347E-01
      0.300000E-01      0.110952E-01
      0.350000E-01      0.102857E-01
      0.400000E-01      0.943199E-02
      0.450000E-01      0.855957E-02
      0.500000E-01      0.769236E-02
      0.550000E-01      0.685171E-02
      0.600000E-01      0.605559E-02
      0.650000E-01      0.531806E-02
      0.700000E-01      0.464892E-02
      0.750000E-01      0.405380E-02
      0.800000E-01      0.353438E-02
      0.850000E-01      0.308886E-02
      0.900000E-01      0.271260E-02
      0.950000E-01      0.239884E-02
      0.100000          0.213946E-02
      0.105000          0.192569E-02
      0.110000          0.174882E-02
      0.115000          0.160070E-02
      0.120000          0.147417E-02
      0.125000          0.136329E-02
      0.130000          0.126352E-02
      0.135000          0.117162E-02
      0.140000          0.108560E-02
      0.145000          0.100447E-02
      0.150000          0.927996E-03
      0.155000          0.856478E-03
      0.160000          0.790450E-03
      0.165000          0.730490E-03
      0.170000          0.677041E-03
      0.175000          0.630307E-03
      0.180000          0.590190E-03
      0.185000          0.556292E-03
      0.190000          0.527953E-03
      0.195000          0.504315E-03
      0.200000          0.484414E-03
      0.205000          0.467264E-03
      0.210000          0.451938E-03
      0.215000          0.437637E-03
      0.220000          0.423732E-03
      0.225000          0.409785E-03
      0.230000          0.395551E-03
      0.235000          0.380959E-03
      0.240000          0.366077E-03
      0.245000          0.351075E-03
      0.250000          0.336182E-03
      0.255000          0.321642E-03
      0.260000          0.307684E-03
      0.265000          0.294494E-03
      0.270000          0.282202E-03
      0.275000          0.270872E-03
      0.280000          0.260512E-03
      0.285000          0.251075E-03
      0.290000          0.242479E-03
      0.295000          0.234617E-03
      0.300000          0.227374E-03
      0.305000          0.220641E-03
      0.310000          0.214318E-03
      0.315000          0.208329E-03
      0.320000          0.202616E-03
      0.325000          0.197144E-03
      0.330000          0.191895E-03
      0.335000          0.186865E-03
      0.340000          0.182060E-03
      0.345000          0.177489E-03
      0.350000          0.173165E-03
      0.355000          0.169096E-03
      0.360000          0.165289E-03
      0.365000          0.161747E-03
      0.370000          0.158467E-03
      0.375000          0.155444E-03
      0.380000          0.152672E-03
      0.385000          0.150138E-03
      0.390000          0.147832E-03
      0.395000          0.145736E-03
      0.400000          0.143834E-03
      0.405000          0.142102E-03
      0.410000          0.140513E-03
      0.415000          0.139039E-03
      0.420000          0.137643E-03
      0.425000          0.136287E-03
      0.430000          0.134931E-03
      0.435000          0.133534E-03
      0.440000          0.132058E-03
      0.445000          0.130468E-03
      0.450000          0.128738E-03
      0.455000          0.126848E-03
      0.460000          0.124790E-03
      0.465000          0.122567E-03
      0.470000          0.120193E-03
      0.475000          0.117690E-03
      0.480000          0.115091E-03
      0.485000          0.112435E-03
      0.490000          0.109761E-03
      0.495000          0.107113E-03
      0.500000          0.104528E-03
