 I_abs(s)[cm^-1]/c[mg/ml]
       0.00000          0.143764E-01
      0.500000E-02      0.142928E-01
      0.100000E-01      0.140454E-01
      0.150000E-01      0.136436E-01
      0.200000E-01      0.131028E-01
      0.250000E-01      0.124429E-01
      0.300000E-01      0.116874E-01
      0.350000E-01      0.108618E-01
      0.400000E-01      0.999235E-02
      0.450000E-01      0.910438E-02
      0.500000E-01      0.822127E-02
      0.550000E-01      0.736340E-02
      0.600000E-01      0.654744E-02
      0.650000E-01      0.578597E-02
      0.700000E-01      0.508744E-02
      0.750000E-01      0.445643E-02
      0.800000E-01      0.389403E-02
      0.850000E-01      0.339857E-02
      0.900000E-01      0.296622E-02
      0.950000E-01      0.259177E-02
      0.100000          0.226930E-02
      0.105000          0.199269E-02
      0.110000          0.175611E-02
      0.115000          0.155427E-02
      0.120000          0.138256E-02
      0.125000          0.123709E-02
      0.130000          0.111460E-02
      0.135000          0.101235E-02
      0.140000          0.927928E-03
      0.145000          0.859146E-03
      0.150000          0.803889E-03
      0.155000          0.760054E-03
      0.160000          0.725516E-03
      0.165000          0.698155E-03
      0.170000          0.675905E-03
      0.175000          0.656834E-03
      0.180000          0.639226E-03
      0.185000          0.621657E-03
      0.190000          0.603050E-03
      0.195000          0.582702E-03
      0.200000          0.560287E-03
      0.205000          0.535816E-03
      0.210000          0.509592E-03
      0.215000          0.482129E-03
      0.220000          0.454078E-03
      0.225000          0.426145E-03
      0.230000          0.399021E-03
      0.235000          0.373317E-03
      0.240000          0.349530E-03
      0.245000          0.328010E-03
      0.250000          0.308954E-03
      0.255000          0.292413E-03
      0.260000          0.278302E-03
      0.265000          0.266430E-03
      0.270000          0.256527E-03
      0.275000          0.248269E-03
      0.280000          0.241312E-03
      0.285000          0.235317E-03
      0.290000          0.229967E-03
      0.295000          0.224995E-03
      0.300000          0.220189E-03
      0.305000          0.215403E-03
      0.310000          0.210561E-03
      0.315000          0.205654E-03
      0.320000          0.200731E-03
      0.325000          0.195893E-03
      0.330000          0.191272E-03
      0.335000          0.187015E-03
      0.340000          0.183269E-03
      0.345000          0.180157E-03
      0.350000          0.177767E-03
      0.355000          0.176134E-03
      0.360000          0.175240E-03
      0.365000          0.175005E-03
      0.370000          0.175298E-03
      0.375000          0.175941E-03
      0.380000          0.176727E-03
      0.385000          0.177439E-03
      0.390000          0.177863E-03
      0.395000          0.177811E-03
      0.400000          0.177136E-03
      0.405000          0.175742E-03
      0.410000          0.173592E-03
      0.415000          0.170706E-03
      0.420000          0.167163E-03
      0.425000          0.163086E-03
      0.430000          0.158634E-03
      0.435000          0.153983E-03
      0.440000          0.149314E-03
      0.445000          0.144798E-03
      0.450000          0.140584E-03
      0.455000          0.136786E-03
      0.460000          0.133482E-03
      0.465000          0.130708E-03
      0.470000          0.128463E-03
      0.475000          0.126709E-03
      0.480000          0.125381E-03
      0.485000          0.124396E-03
      0.490000          0.123654E-03
      0.495000          0.123058E-03
      0.500000          0.122510E-03
