 I_abs(s)[cm^-1]/c[mg/ml]
       0.00000          0.142346E-01
      0.500000E-02      0.141724E-01
      0.100000E-01      0.139874E-01
      0.150000E-01      0.136844E-01
      0.200000E-01      0.132713E-01
      0.250000E-01      0.127586E-01
      0.300000E-01      0.121591E-01
      0.350000E-01      0.114873E-01
      0.400000E-01      0.107590E-01
      0.450000E-01      0.999078E-02
      0.500000E-01      0.919916E-02
      0.550000E-01      0.840021E-02
      0.600000E-01      0.760901E-02
      0.650000E-01      0.683920E-02
      0.700000E-01      0.610262E-02
      0.750000E-01      0.540907E-02
      0.800000E-01      0.476613E-02
      0.850000E-01      0.417910E-02
      0.900000E-01      0.365108E-02
      0.950000E-01      0.318305E-02
      0.100000          0.277414E-02
      0.105000          0.242183E-02
      0.110000          0.212234E-02
      0.115000          0.187084E-02
      0.120000          0.166192E-02
      0.125000          0.148980E-02
      0.130000          0.134867E-02
      0.135000          0.123293E-02
      0.140000          0.113739E-02
      0.145000          0.105743E-02
      0.150000          0.989094E-03
      0.155000          0.929142E-03
      0.160000          0.875040E-03
      0.165000          0.824933E-03
      0.170000          0.777573E-03
      0.175000          0.732228E-03
      0.180000          0.688577E-03
      0.185000          0.646605E-03
      0.190000          0.606498E-03
      0.195000          0.568547E-03
      0.200000          0.533068E-03
      0.205000          0.500341E-03
      0.210000          0.470562E-03
      0.215000          0.443821E-03
      0.220000          0.420087E-03
      0.225000          0.399220E-03
      0.230000          0.380980E-03
      0.235000          0.365057E-03
      0.240000          0.351094E-03
      0.245000          0.338717E-03
      0.250000          0.327565E-03
      0.255000          0.317307E-03
      0.260000          0.307664E-03
      0.265000          0.298416E-03
      0.270000          0.289411E-03
      0.275000          0.280557E-03
      0.280000          0.271820E-03
      0.285000          0.263212E-03
      0.290000          0.254778E-03
      0.295000          0.246583E-03
      0.300000          0.238695E-03
      0.305000          0.231179E-03
      0.310000          0.224082E-03
      0.315000          0.217432E-03
      0.320000          0.211227E-03
      0.325000          0.205444E-03
      0.330000          0.200035E-03
      0.335000          0.194933E-03
      0.340000          0.190062E-03
      0.345000          0.185339E-03
      0.350000          0.180686E-03
      0.355000          0.176035E-03
      0.360000          0.171334E-03
      0.365000          0.166551E-03
      0.370000          0.161675E-03
      0.375000          0.156722E-03
      0.380000          0.151724E-03
      0.385000          0.146738E-03
      0.390000          0.141830E-03
      0.395000          0.137079E-03
      0.400000          0.132565E-03
      0.405000          0.128367E-03
      0.410000          0.124554E-03
      0.415000          0.121185E-03
      0.420000          0.118300E-03
      0.425000          0.115921E-03
      0.430000          0.114048E-03
      0.435000          0.112661E-03
      0.440000          0.111720E-03
      0.445000          0.111167E-03
      0.450000          0.110931E-03
      0.455000          0.110930E-03
      0.460000          0.111074E-03
      0.465000          0.111275E-03
      0.470000          0.111443E-03
      0.475000          0.111497E-03
      0.480000          0.111366E-03
      0.485000          0.110990E-03
      0.490000          0.110325E-03
      0.495000          0.109340E-03
      0.500000          0.108023E-03
