 I_abs(s)[cm^-1]/c[mg/ml]
       0.00000          0.143922E-01
      0.500000E-02      0.143374E-01
      0.100000E-01      0.141744E-01
      0.150000E-01      0.139073E-01
      0.200000E-01      0.135426E-01
      0.250000E-01      0.130892E-01
      0.300000E-01      0.125579E-01
      0.350000E-01      0.119609E-01
      0.400000E-01      0.113116E-01
      0.450000E-01      0.106236E-01
      0.500000E-01      0.991096E-02
      0.550000E-01      0.918709E-02
      0.600000E-01      0.846461E-02
      0.650000E-01      0.775497E-02
      0.700000E-01      0.706812E-02
      0.750000E-01      0.641232E-02
      0.800000E-01      0.579405E-02
      0.850000E-01      0.521796E-02
      0.900000E-01      0.468695E-02
      0.950000E-01      0.420225E-02
      0.100000          0.376364E-02
      0.105000          0.336967E-02
      0.110000          0.301791E-02
      0.115000          0.270519E-02
      0.120000          0.242791E-02
      0.125000          0.218224E-02
      0.130000          0.196434E-02
      0.135000          0.177055E-02
      0.140000          0.159752E-02
      0.145000          0.144229E-02
      0.150000          0.130233E-02
      0.155000          0.117560E-02
      0.160000          0.106047E-02
      0.165000          0.955709E-03
      0.170000          0.860397E-03
      0.175000          0.773872E-03
      0.180000          0.695642E-03
      0.185000          0.625314E-03
      0.190000          0.562536E-03
      0.195000          0.506946E-03
      0.200000          0.458139E-03
      0.205000          0.415648E-03
      0.210000          0.378943E-03
      0.215000          0.347437E-03
      0.220000          0.320505E-03
      0.225000          0.297512E-03
      0.230000          0.277833E-03
      0.235000          0.260884E-03
      0.240000          0.246144E-03
      0.245000          0.233169E-03
      0.250000          0.221605E-03
      0.255000          0.211189E-03
      0.260000          0.201742E-03
      0.265000          0.193165E-03
      0.270000          0.185415E-03
      0.275000          0.178493E-03
      0.280000          0.172421E-03
      0.285000          0.167225E-03
      0.290000          0.162917E-03
      0.295000          0.159486E-03
      0.300000          0.156886E-03
      0.305000          0.155036E-03
      0.310000          0.153818E-03
      0.315000          0.153089E-03
      0.320000          0.152684E-03
      0.325000          0.152430E-03
      0.330000          0.152158E-03
      0.335000          0.151714E-03
      0.340000          0.150971E-03
      0.345000          0.149838E-03
      0.350000          0.148260E-03
      0.355000          0.146228E-03
      0.360000          0.143770E-03
      0.365000          0.140952E-03
      0.370000          0.137868E-03
      0.375000          0.134634E-03
      0.380000          0.131374E-03
      0.385000          0.128214E-03
      0.390000          0.125271E-03
      0.395000          0.122644E-03
      0.400000          0.120408E-03
      0.405000          0.118610E-03
      0.410000          0.117268E-03
      0.415000          0.116369E-03
      0.420000          0.115873E-03
      0.425000          0.115719E-03
      0.430000          0.115829E-03
      0.435000          0.116111E-03
      0.440000          0.116474E-03
      0.445000          0.116827E-03
      0.450000          0.117087E-03
      0.455000          0.117185E-03
      0.460000          0.117069E-03
      0.465000          0.116703E-03
      0.470000          0.116071E-03
      0.475000          0.115175E-03
      0.480000          0.114032E-03
      0.485000          0.112673E-03
      0.490000          0.111138E-03
      0.495000          0.109471E-03
      0.500000          0.107722E-03
