 I_abs(s)[cm^-1]/c[mg/ml]
       0.00000          0.144476E-01
      0.500000E-02      0.143972E-01
      0.100000E-01      0.142471E-01
      0.150000E-01      0.140003E-01
      0.200000E-01      0.136619E-01
      0.250000E-01      0.132387E-01
      0.300000E-01      0.127389E-01
      0.350000E-01      0.121722E-01
      0.400000E-01      0.115495E-01
      0.450000E-01      0.108820E-01
      0.500000E-01      0.101817E-01
      0.550000E-01      0.946038E-02
      0.600000E-01      0.872976E-02
      0.650000E-01      0.800092E-02
      0.700000E-01      0.728415E-02
      0.750000E-01      0.658872E-02
      0.800000E-01      0.592266E-02
      0.850000E-01      0.529269E-02
      0.900000E-01      0.470409E-02
      0.950000E-01      0.416070E-02
      0.100000          0.366493E-02
      0.105000          0.321784E-02
      0.110000          0.281921E-02
      0.115000          0.246775E-02
      0.120000          0.216118E-02
      0.125000          0.189650E-02
      0.130000          0.167008E-02
      0.135000          0.147793E-02
      0.140000          0.131587E-02
      0.145000          0.117966E-02
      0.150000          0.106518E-02
      0.155000          0.968545E-03
      0.160000          0.886225E-03
      0.165000          0.815095E-03
      0.170000          0.752493E-03
      0.175000          0.696236E-03
      0.180000          0.644622E-03
      0.185000          0.596398E-03
      0.190000          0.550726E-03
      0.195000          0.507124E-03
      0.200000          0.465407E-03
      0.205000          0.425617E-03
      0.210000          0.387958E-03
      0.215000          0.352730E-03
      0.220000          0.320273E-03
      0.225000          0.290915E-03
      0.230000          0.264929E-03
      0.235000          0.242509E-03
      0.240000          0.223745E-03
      0.245000          0.208616E-03
      0.250000          0.196989E-03
      0.255000          0.188628E-03
      0.260000          0.183210E-03
      0.265000          0.180338E-03
      0.270000          0.179571E-03
      0.275000          0.180440E-03
      0.280000          0.182473E-03
      0.285000          0.185220E-03
      0.290000          0.188263E-03
      0.295000          0.191236E-03
      0.300000          0.193837E-03
      0.305000          0.195826E-03
      0.310000          0.197035E-03
      0.315000          0.197366E-03
      0.320000          0.196779E-03
      0.325000          0.195293E-03
      0.330000          0.192973E-03
      0.335000          0.189917E-03
      0.340000          0.186251E-03
      0.345000          0.182113E-03
      0.350000          0.177647E-03
      0.355000          0.172991E-03
      0.360000          0.168274E-03
      0.365000          0.163606E-03
      0.370000          0.159076E-03
      0.375000          0.154755E-03
      0.380000          0.150685E-03
      0.385000          0.146892E-03
      0.390000          0.143378E-03
      0.395000          0.140133E-03
      0.400000          0.137129E-03
      0.405000          0.134332E-03
      0.410000          0.131702E-03
      0.415000          0.129197E-03
      0.420000          0.126775E-03
      0.425000          0.124399E-03
      0.430000          0.122037E-03
      0.435000          0.119665E-03
      0.440000          0.117267E-03
      0.445000          0.114834E-03
      0.450000          0.112367E-03
      0.455000          0.109871E-03
      0.460000          0.107361E-03
      0.465000          0.104853E-03
      0.470000          0.102370E-03
      0.475000          0.999355E-04
      0.480000          0.975726E-04
      0.485000          0.953052E-04
      0.490000          0.931552E-04
      0.495000          0.911415E-04
      0.500000          0.892798E-04
