 I_abs(s)[cm^-1]/c[mg/ml]
       0.00000          0.144476E-01
      0.500000E-02      0.143938E-01
      0.100000E-01      0.142337E-01
      0.150000E-01      0.139710E-01
      0.200000E-01      0.136113E-01
      0.250000E-01      0.131626E-01
      0.300000E-01      0.126345E-01
      0.350000E-01      0.120382E-01
      0.400000E-01      0.113857E-01
      0.450000E-01      0.106900E-01
      0.500000E-01      0.996408E-02
      0.550000E-01      0.922104E-02
      0.600000E-01      0.847334E-02
      0.650000E-01      0.773267E-02
      0.700000E-01      0.700958E-02
      0.750000E-01      0.631331E-02
      0.800000E-01      0.565159E-02
      0.850000E-01      0.503057E-02
      0.900000E-01      0.445477E-02
      0.950000E-01      0.392712E-02
      0.100000          0.344906E-02
      0.105000          0.302063E-02
      0.110000          0.264071E-02
      0.115000          0.230715E-02
      0.120000          0.201701E-02
      0.125000          0.176677E-02
      0.130000          0.155253E-02
      0.135000          0.137021E-02
      0.140000          0.121572E-02
      0.145000          0.108511E-02
      0.150000          0.974674E-03
      0.155000          0.881027E-03
      0.160000          0.801189E-03
      0.165000          0.732592E-03
      0.170000          0.673086E-03
      0.175000          0.620926E-03
      0.180000          0.574733E-03
      0.185000          0.533454E-03
      0.190000          0.496307E-03
      0.195000          0.462733E-03
      0.200000          0.432337E-03
      0.205000          0.404847E-03
      0.210000          0.380067E-03
      0.215000          0.357844E-03
      0.220000          0.338043E-03
      0.225000          0.320526E-03
      0.230000          0.305145E-03
      0.235000          0.291731E-03
      0.240000          0.280098E-03
      0.245000          0.270048E-03
      0.250000          0.261371E-03
      0.255000          0.253858E-03
      0.260000          0.247305E-03
      0.265000          0.241520E-03
      0.270000          0.236329E-03
      0.275000          0.231578E-03
      0.280000          0.227136E-03
      0.285000          0.222894E-03
      0.290000          0.218768E-03
      0.295000          0.214691E-03
      0.300000          0.210617E-03
      0.305000          0.206513E-03
      0.310000          0.202361E-03
      0.315000          0.198151E-03
      0.320000          0.193880E-03
      0.325000          0.189554E-03
      0.330000          0.185182E-03
      0.335000          0.180776E-03
      0.340000          0.176353E-03
      0.345000          0.171930E-03
      0.350000          0.167528E-03
      0.355000          0.163170E-03
      0.360000          0.158878E-03
      0.365000          0.154677E-03
      0.370000          0.150591E-03
      0.375000          0.146640E-03
      0.380000          0.142846E-03
      0.385000          0.139225E-03
      0.390000          0.135792E-03
      0.395000          0.132555E-03
      0.400000          0.129519E-03
      0.405000          0.126685E-03
      0.410000          0.124049E-03
      0.415000          0.121605E-03
      0.420000          0.119344E-03
      0.425000          0.117253E-03
      0.430000          0.115323E-03
      0.435000          0.113542E-03
      0.440000          0.111901E-03
      0.445000          0.110394E-03
      0.450000          0.109016E-03
      0.455000          0.107766E-03
      0.460000          0.106644E-03
      0.465000          0.105655E-03
      0.470000          0.104802E-03
      0.475000          0.104089E-03
      0.480000          0.103518E-03
      0.485000          0.103091E-03
      0.490000          0.102804E-03
      0.495000          0.102647E-03
      0.500000          0.102609E-03
