 I_abs(s)[cm^-1]/c[mg/ml]
       0.00000          0.144317E-01
      0.500000E-02      0.143821E-01
      0.100000E-01      0.142342E-01
      0.150000E-01      0.139908E-01
      0.200000E-01      0.136566E-01
      0.250000E-01      0.132379E-01
      0.300000E-01      0.127425E-01
      0.350000E-01      0.121794E-01
      0.400000E-01      0.115587E-01
      0.450000E-01      0.108913E-01
      0.500000E-01      0.101884E-01
      0.550000E-01      0.946142E-02
      0.600000E-01      0.872174E-02
      0.650000E-01      0.798026E-02
      0.700000E-01      0.724728E-02
      0.750000E-01      0.653224E-02
      0.800000E-01      0.584352E-02
      0.850000E-01      0.518837E-02
      0.900000E-01      0.457272E-02
      0.950000E-01      0.400121E-02
      0.100000          0.347714E-02
      0.105000          0.300250E-02
      0.110000          0.257804E-02
      0.115000          0.220339E-02
      0.120000          0.187714E-02
      0.125000          0.159703E-02
      0.130000          0.136009E-02
      0.135000          0.116280E-02
      0.140000          0.100123E-02
      0.145000          0.871258E-03
      0.150000          0.768664E-03
      0.155000          0.689284E-03
      0.160000          0.629120E-03
      0.165000          0.584431E-03
      0.170000          0.551812E-03
      0.175000          0.528240E-03
      0.180000          0.511105E-03
      0.185000          0.498220E-03
      0.190000          0.487819E-03
      0.195000          0.478532E-03
      0.200000          0.469353E-03
      0.205000          0.459602E-03
      0.210000          0.448876E-03
      0.215000          0.437001E-03
      0.220000          0.423981E-03
      0.225000          0.409951E-03
      0.230000          0.395137E-03
      0.235000          0.379811E-03
      0.240000          0.364265E-03
      0.245000          0.348778E-03
      0.250000          0.333604E-03
      0.255000          0.318954E-03
      0.260000          0.304990E-03
      0.265000          0.291823E-03
      0.270000          0.279515E-03
      0.275000          0.268080E-03
      0.280000          0.257499E-03
      0.285000          0.247721E-03
      0.290000          0.238674E-03
      0.295000          0.230275E-03
      0.300000          0.222437E-03
      0.305000          0.215073E-03
      0.310000          0.208107E-03
      0.315000          0.201472E-03
      0.320000          0.195115E-03
      0.325000          0.188997E-03
      0.330000          0.183093E-03
      0.335000          0.177391E-03
      0.340000          0.171888E-03
      0.345000          0.166591E-03
      0.350000          0.161510E-03
      0.355000          0.156660E-03
      0.360000          0.152055E-03
      0.365000          0.147708E-03
      0.370000          0.143629E-03
      0.375000          0.139822E-03
      0.380000          0.136290E-03
      0.385000          0.133026E-03
      0.390000          0.130023E-03
      0.395000          0.127267E-03
      0.400000          0.124741E-03
      0.405000          0.122427E-03
      0.410000          0.120304E-03
      0.415000          0.118352E-03
      0.420000          0.116549E-03
      0.425000          0.114877E-03
      0.430000          0.113315E-03
      0.435000          0.111849E-03
      0.440000          0.110462E-03
      0.445000          0.109142E-03
      0.450000          0.107879E-03
      0.455000          0.106661E-03
      0.460000          0.105482E-03
      0.465000          0.104332E-03
      0.470000          0.103206E-03
      0.475000          0.102096E-03
      0.480000          0.100995E-03
      0.485000          0.998973E-04
      0.490000          0.987948E-04
      0.495000          0.976809E-04
      0.500000          0.965487E-04
