 I_abs(s)[cm^-1]/c[mg/ml]
       0.00000          0.141013E-01
      0.500000E-02      0.140155E-01
      0.100000E-01      0.137622E-01
      0.150000E-01      0.133525E-01
      0.200000E-01      0.128043E-01
      0.250000E-01      0.121408E-01
      0.300000E-01      0.113884E-01
      0.350000E-01      0.105756E-01
      0.400000E-01      0.973062E-02
      0.450000E-01      0.887969E-02
      0.500000E-01      0.804591E-02
      0.550000E-01      0.724807E-02
      0.600000E-01      0.650014E-02
      0.650000E-01      0.581119E-02
      0.700000E-01      0.518570E-02
      0.750000E-01      0.462419E-02
      0.800000E-01      0.412410E-02
      0.850000E-01      0.368072E-02
      0.900000E-01      0.328817E-02
      0.950000E-01      0.294024E-02
      0.100000          0.263099E-02
      0.105000          0.235528E-02
      0.110000          0.210892E-02
      0.115000          0.188873E-02
      0.120000          0.169241E-02
      0.125000          0.151828E-02
      0.130000          0.136505E-02
      0.135000          0.123154E-02
      0.140000          0.111644E-02
      0.145000          0.101826E-02
      0.150000          0.935206E-03
      0.155000          0.865243E-03
      0.160000          0.806199E-03
      0.165000          0.755872E-03
      0.170000          0.712180E-03
      0.175000          0.673270E-03
      0.180000          0.637616E-03
      0.185000          0.604061E-03
      0.190000          0.571820E-03
      0.195000          0.540452E-03
      0.200000          0.509794E-03
      0.205000          0.479889E-03
      0.210000          0.450910E-03
      0.215000          0.423092E-03
      0.220000          0.396677E-03
      0.225000          0.371878E-03
      0.230000          0.348861E-03
      0.235000          0.327736E-03
      0.240000          0.308560E-03
      0.245000          0.291343E-03
      0.250000          0.276054E-03
      0.255000          0.262623E-03
      0.260000          0.250948E-03
      0.265000          0.240891E-03
      0.270000          0.232283E-03
      0.275000          0.224929E-03
      0.280000          0.218617E-03
      0.285000          0.213130E-03
      0.290000          0.208263E-03
      0.295000          0.203843E-03
      0.300000          0.199739E-03
      0.305000          0.195876E-03
      0.310000          0.192237E-03
      0.315000          0.188856E-03
      0.320000          0.185804E-03
      0.325000          0.183172E-03
      0.330000          0.181044E-03
      0.335000          0.179474E-03
      0.340000          0.178468E-03
      0.345000          0.177974E-03
      0.350000          0.177875E-03
      0.355000          0.178001E-03
      0.360000          0.178143E-03
      0.365000          0.178076E-03
      0.370000          0.177587E-03
      0.375000          0.176497E-03
      0.380000          0.174684E-03
      0.385000          0.172095E-03
      0.390000          0.168752E-03
      0.395000          0.164743E-03
      0.400000          0.160214E-03
      0.405000          0.155348E-03
      0.410000          0.150340E-03
      0.415000          0.145378E-03
      0.420000          0.140625E-03
      0.425000          0.136202E-03
      0.430000          0.132182E-03
      0.435000          0.128591E-03
      0.440000          0.125412E-03
      0.445000          0.122598E-03
      0.450000          0.120079E-03
      0.455000          0.117782E-03
      0.460000          0.115636E-03
      0.465000          0.113587E-03
      0.470000          0.111599E-03
      0.475000          0.109655E-03
      0.480000          0.107757E-03
      0.485000          0.105924E-03
      0.490000          0.104178E-03
      0.495000          0.102548E-03
      0.500000          0.101058E-03
