 I_abs(s)[cm^-1]/c[mg/ml]
       0.00000          0.142267E-01
      0.500000E-02      0.141759E-01
      0.100000E-01      0.140244E-01
      0.150000E-01      0.137754E-01
      0.200000E-01      0.134338E-01
      0.250000E-01      0.130063E-01
      0.300000E-01      0.125013E-01
      0.350000E-01      0.119285E-01
      0.400000E-01      0.112985E-01
      0.450000E-01      0.106229E-01
      0.500000E-01      0.991364E-02
      0.550000E-01      0.918264E-02
      0.600000E-01      0.844174E-02
      0.650000E-01      0.770228E-02
      0.700000E-01      0.697482E-02
      0.750000E-01      0.626893E-02
      0.800000E-01      0.559303E-02
      0.850000E-01      0.495422E-02
      0.900000E-01      0.435819E-02
      0.950000E-01      0.380919E-02
      0.100000          0.331004E-02
      0.105000          0.286218E-02
      0.110000          0.246576E-02
      0.115000          0.211973E-02
      0.120000          0.182205E-02
      0.125000          0.156980E-02
      0.130000          0.135942E-02
      0.135000          0.118682E-02
      0.140000          0.104762E-02
      0.145000          0.937303E-03
      0.150000          0.851354E-03
      0.155000          0.785414E-03
      0.160000          0.735389E-03
      0.165000          0.697538E-03
      0.170000          0.668543E-03
      0.175000          0.645546E-03
      0.180000          0.626173E-03
      0.185000          0.608525E-03
      0.190000          0.591165E-03
      0.195000          0.573080E-03
      0.200000          0.553637E-03
      0.205000          0.532528E-03
      0.210000          0.509714E-03
      0.215000          0.485367E-03
      0.220000          0.459811E-03
      0.225000          0.433467E-03
      0.230000          0.406812E-03
      0.235000          0.380329E-03
      0.240000          0.354479E-03
      0.245000          0.329675E-03
      0.250000          0.306263E-03
      0.255000          0.284510E-03
      0.260000          0.264603E-03
      0.265000          0.246647E-03
      0.270000          0.230672E-03
      0.275000          0.216641E-03
      0.280000          0.204464E-03
      0.285000          0.194007E-03
      0.290000          0.185107E-03
      0.295000          0.177580E-03
      0.300000          0.171239E-03
      0.305000          0.165897E-03
      0.310000          0.161378E-03
      0.315000          0.157524E-03
      0.320000          0.154196E-03
      0.325000          0.151277E-03
      0.330000          0.148675E-03
      0.335000          0.146319E-03
      0.340000          0.144159E-03
      0.345000          0.142163E-03
      0.350000          0.140312E-03
      0.355000          0.138601E-03
      0.360000          0.137030E-03
      0.365000          0.135605E-03
      0.370000          0.134333E-03
      0.375000          0.133219E-03
      0.380000          0.132266E-03
      0.385000          0.131472E-03
      0.390000          0.130829E-03
      0.395000          0.130323E-03
      0.400000          0.129935E-03
      0.405000          0.129639E-03
      0.410000          0.129406E-03
      0.415000          0.129203E-03
      0.420000          0.128995E-03
      0.425000          0.128746E-03
      0.430000          0.128420E-03
      0.435000          0.127985E-03
      0.440000          0.127412E-03
      0.445000          0.126673E-03
      0.450000          0.125751E-03
      0.455000          0.124630E-03
      0.460000          0.123303E-03
      0.465000          0.121771E-03
      0.470000          0.120038E-03
      0.475000          0.118117E-03
      0.480000          0.116027E-03
      0.485000          0.113790E-03
      0.490000          0.111435E-03
      0.495000          0.108992E-03
      0.500000          0.106494E-03
