 I_abs(s)[cm^-1]/c[mg/ml]
       0.00000          0.146223E-01
      0.500000E-02      0.145664E-01
      0.100000E-01      0.144002E-01
      0.150000E-01      0.141279E-01
      0.200000E-01      0.137566E-01
      0.250000E-01      0.132953E-01
      0.300000E-01      0.127553E-01
      0.350000E-01      0.121493E-01
      0.400000E-01      0.114907E-01
      0.450000E-01      0.107937E-01
      0.500000E-01      0.100720E-01
      0.550000E-01      0.933907E-02
      0.600000E-01      0.860710E-02
      0.650000E-01      0.788713E-02
      0.700000E-01      0.718862E-02
      0.750000E-01      0.651930E-02
      0.800000E-01      0.588519E-02
      0.850000E-01      0.529059E-02
      0.900000E-01      0.473820E-02
      0.950000E-01      0.422929E-02
      0.100000          0.376393E-02
      0.105000          0.334117E-02
      0.110000          0.295930E-02
      0.115000          0.261608E-02
      0.120000          0.230892E-02
      0.125000          0.203506E-02
      0.130000          0.179168E-02
      0.135000          0.157606E-02
      0.140000          0.138556E-02
      0.145000          0.121773E-02
      0.150000          0.107031E-02
      0.155000          0.941191E-03
      0.160000          0.828459E-03
      0.165000          0.730335E-03
      0.170000          0.645186E-03
      0.175000          0.571503E-03
      0.180000          0.507895E-03
      0.185000          0.453092E-03
      0.190000          0.405941E-03
      0.195000          0.365413E-03
      0.200000          0.330606E-03
      0.205000          0.300750E-03
      0.210000          0.275202E-03
      0.215000          0.253444E-03
      0.220000          0.235068E-03
      0.225000          0.219762E-03
      0.230000          0.207290E-03
      0.235000          0.197468E-03
      0.240000          0.190142E-03
      0.245000          0.185169E-03
      0.250000          0.182390E-03
      0.255000          0.181627E-03
      0.260000          0.182663E-03
      0.265000          0.185246E-03
      0.270000          0.189086E-03
      0.275000          0.193865E-03
      0.280000          0.199248E-03
      0.285000          0.204891E-03
      0.290000          0.210461E-03
      0.295000          0.215648E-03
      0.300000          0.220175E-03
      0.305000          0.223811E-03
      0.310000          0.226379E-03
      0.315000          0.227754E-03
      0.320000          0.227873E-03
      0.325000          0.226724E-03
      0.330000          0.224346E-03
      0.335000          0.220820E-03
      0.340000          0.216262E-03
      0.345000          0.210815E-03
      0.350000          0.204638E-03
      0.355000          0.197901E-03
      0.360000          0.190773E-03
      0.365000          0.183420E-03
      0.370000          0.175994E-03
      0.375000          0.168636E-03
      0.380000          0.161464E-03
      0.385000          0.154579E-03
      0.390000          0.148059E-03
      0.395000          0.141959E-03
      0.400000          0.136316E-03
      0.405000          0.131146E-03
      0.410000          0.126449E-03
      0.415000          0.122208E-03
      0.420000          0.118398E-03
      0.425000          0.114984E-03
      0.430000          0.111928E-03
      0.435000          0.109188E-03
      0.440000          0.106723E-03
      0.445000          0.104498E-03
      0.450000          0.102479E-03
      0.455000          0.100639E-03
      0.460000          0.989567E-04
      0.465000          0.974152E-04
      0.470000          0.960023E-04
      0.475000          0.947088E-04
      0.480000          0.935267E-04
      0.485000          0.924484E-04
      0.490000          0.914651E-04
      0.495000          0.905661E-04
      0.500000          0.897383E-04
