 I_abs(s)[cm^-1]/c[mg/ml]
       0.00000          0.145427E-01
      0.500000E-02      0.144952E-01
      0.100000E-01      0.143534E-01
      0.150000E-01      0.141200E-01
      0.200000E-01      0.137993E-01
      0.250000E-01      0.133973E-01
      0.300000E-01      0.129213E-01
      0.350000E-01      0.123797E-01
      0.400000E-01      0.117820E-01
      0.450000E-01      0.111384E-01
      0.500000E-01      0.104596E-01
      0.550000E-01      0.975621E-02
      0.600000E-01      0.903909E-02
      0.650000E-01      0.831858E-02
      0.700000E-01      0.760448E-02
      0.750000E-01      0.690582E-02
      0.800000E-01      0.623064E-02
      0.850000E-01      0.558593E-02
      0.900000E-01      0.497746E-02
      0.950000E-01      0.440978E-02
      0.100000          0.388616E-02
      0.105000          0.340865E-02
      0.110000          0.297810E-02
      0.115000          0.259428E-02
      0.120000          0.225598E-02
      0.125000          0.196115E-02
      0.130000          0.170705E-02
      0.135000          0.149038E-02
      0.140000          0.130749E-02
      0.145000          0.115448E-02
      0.150000          0.102740E-02
      0.155000          0.922327E-03
      0.160000          0.835516E-03
      0.165000          0.763486E-03
      0.170000          0.703091E-03
      0.175000          0.651574E-03
      0.180000          0.606600E-03
      0.185000          0.566265E-03
      0.190000          0.529089E-03
      0.195000          0.493992E-03
      0.200000          0.460261E-03
      0.205000          0.427497E-03
      0.210000          0.395570E-03
      0.215000          0.364555E-03
      0.220000          0.334678E-03
      0.225000          0.306264E-03
      0.230000          0.279678E-03
      0.235000          0.255287E-03
      0.240000          0.233421E-03
      0.245000          0.214340E-03
      0.250000          0.198220E-03
      0.255000          0.185135E-03
      0.260000          0.175054E-03
      0.265000          0.167849E-03
      0.270000          0.163298E-03
      0.275000          0.161101E-03
      0.280000          0.160899E-03
      0.285000          0.162292E-03
      0.290000          0.164859E-03
      0.295000          0.168178E-03
      0.300000          0.171847E-03
      0.305000          0.175495E-03
      0.310000          0.178801E-03
      0.315000          0.181498E-03
      0.320000          0.183384E-03
      0.325000          0.184321E-03
      0.330000          0.184237E-03
      0.335000          0.183120E-03
      0.340000          0.181016E-03
      0.345000          0.178015E-03
      0.350000          0.174245E-03
      0.355000          0.169860E-03
      0.360000          0.165033E-03
      0.365000          0.159940E-03
      0.370000          0.154755E-03
      0.375000          0.149641E-03
      0.380000          0.144740E-03
      0.385000          0.140173E-03
      0.390000          0.136031E-03
      0.395000          0.132377E-03
      0.400000          0.129245E-03
      0.405000          0.126638E-03
      0.410000          0.124538E-03
      0.415000          0.122900E-03
      0.420000          0.121664E-03
      0.425000          0.120756E-03
      0.430000          0.120092E-03
      0.435000          0.119586E-03
      0.440000          0.119153E-03
      0.445000          0.118713E-03
      0.450000          0.118193E-03
      0.455000          0.117533E-03
      0.460000          0.116685E-03
      0.465000          0.115617E-03
      0.470000          0.114312E-03
      0.475000          0.112765E-03
      0.480000          0.110988E-03
      0.485000          0.109004E-03
      0.490000          0.106847E-03
      0.495000          0.104558E-03
      0.500000          0.102186E-03
