 I_abs(s)[cm^-1]/c[mg/ml]
       0.00000          0.134977E-01
      0.500000E-02      0.134157E-01
      0.100000E-01      0.131727E-01
      0.150000E-01      0.127777E-01
      0.200000E-01      0.122452E-01
      0.250000E-01      0.115945E-01
      0.300000E-01      0.108482E-01
      0.350000E-01      0.100318E-01
      0.400000E-01      0.917146E-02
      0.450000E-01      0.829343E-02
      0.500000E-01      0.742247E-02
      0.550000E-01      0.658086E-02
      0.600000E-01      0.578753E-02
      0.650000E-01      0.505739E-02
      0.700000E-01      0.440105E-02
      0.750000E-01      0.382470E-02
      0.800000E-01      0.333032E-02
      0.850000E-01      0.291610E-02
      0.900000E-01      0.257700E-02
      0.950000E-01      0.230551E-02
      0.100000          0.209243E-02
      0.105000          0.192759E-02
      0.110000          0.180067E-02
      0.115000          0.170178E-02
      0.120000          0.162202E-02
      0.125000          0.155381E-02
      0.130000          0.149113E-02
      0.135000          0.142959E-02
      0.140000          0.136638E-02
      0.145000          0.130011E-02
      0.150000          0.123053E-02
      0.155000          0.115831E-02
      0.160000          0.108470E-02
      0.165000          0.101125E-02
      0.170000          0.939591E-03
      0.175000          0.871171E-03
      0.180000          0.807169E-03
      0.185000          0.748383E-03
      0.190000          0.695206E-03
      0.195000          0.647651E-03
      0.200000          0.605404E-03
      0.205000          0.567906E-03
      0.210000          0.534448E-03
      0.215000          0.504262E-03
      0.220000          0.476603E-03
      0.225000          0.450814E-03
      0.230000          0.426373E-03
      0.235000          0.402911E-03
      0.240000          0.380221E-03
      0.245000          0.358236E-03
      0.250000          0.337006E-03
      0.255000          0.316662E-03
      0.260000          0.297377E-03
      0.265000          0.279333E-03
      0.270000          0.262692E-03
      0.275000          0.247570E-03
      0.280000          0.234029E-03
      0.285000          0.222070E-03
      0.290000          0.211636E-03
      0.295000          0.202625E-03
      0.300000          0.194898E-03
      0.305000          0.188300E-03
      0.310000          0.182670E-03
      0.315000          0.177853E-03
      0.320000          0.173714E-03
      0.325000          0.170140E-03
      0.330000          0.167044E-03
      0.335000          0.164363E-03
      0.340000          0.162052E-03
      0.345000          0.160081E-03
      0.350000          0.158429E-03
      0.355000          0.157074E-03
      0.360000          0.155991E-03
      0.365000          0.155149E-03
      0.370000          0.154504E-03
      0.375000          0.154006E-03
      0.380000          0.153596E-03
      0.385000          0.153208E-03
      0.390000          0.152779E-03
      0.395000          0.152247E-03
      0.400000          0.151557E-03
      0.405000          0.150666E-03
      0.410000          0.149544E-03
      0.415000          0.148176E-03
      0.420000          0.146559E-03
      0.425000          0.144708E-03
      0.430000          0.142644E-03
      0.435000          0.140401E-03
      0.440000          0.138015E-03
      0.445000          0.135526E-03
      0.450000          0.132970E-03
      0.455000          0.130382E-03
      0.460000          0.127789E-03
      0.465000          0.125211E-03
      0.470000          0.122661E-03
      0.475000          0.120145E-03
      0.480000          0.117661E-03
      0.485000          0.115207E-03
      0.490000          0.112774E-03
      0.495000          0.110356E-03
      0.500000          0.107945E-03
