 I_abs(s)[cm^-1]/c[mg/ml]
       0.00000          0.145189E-01
      0.500000E-02      0.144638E-01
      0.100000E-01      0.142996E-01
      0.150000E-01      0.140298E-01
      0.200000E-01      0.136604E-01
      0.250000E-01      0.131991E-01
      0.300000E-01      0.126556E-01
      0.350000E-01      0.120410E-01
      0.400000E-01      0.113676E-01
      0.450000E-01      0.106483E-01
      0.500000E-01      0.989638E-02
      0.550000E-01      0.912523E-02
      0.600000E-01      0.834769E-02
      0.650000E-01      0.757590E-02
      0.700000E-01      0.682099E-02
      0.750000E-01      0.609282E-02
      0.800000E-01      0.539980E-02
      0.850000E-01      0.474881E-02
      0.900000E-01      0.414512E-02
      0.950000E-01      0.359240E-02
      0.100000          0.309276E-02
      0.105000          0.264692E-02
      0.110000          0.225426E-02
      0.115000          0.191307E-02
      0.120000          0.162072E-02
      0.125000          0.137382E-02
      0.130000          0.116847E-02
      0.135000          0.100044E-02
      0.140000          0.865327E-03
      0.145000          0.758720E-03
      0.150000          0.676342E-03
      0.155000          0.614149E-03
      0.160000          0.568412E-03
      0.165000          0.535773E-03
      0.170000          0.513273E-03
      0.175000          0.498370E-03
      0.180000          0.488924E-03
      0.185000          0.483184E-03
      0.190000          0.479751E-03
      0.195000          0.477542E-03
      0.200000          0.475749E-03
      0.205000          0.473795E-03
      0.210000          0.471292E-03
      0.215000          0.468003E-03
      0.220000          0.463804E-03
      0.225000          0.458656E-03
      0.230000          0.452579E-03
      0.235000          0.445631E-03
      0.240000          0.437890E-03
      0.245000          0.429444E-03
      0.250000          0.420381E-03
      0.255000          0.410784E-03
      0.260000          0.400727E-03
      0.265000          0.390272E-03
      0.270000          0.379473E-03
      0.275000          0.368372E-03
      0.280000          0.357007E-03
      0.285000          0.345405E-03
      0.290000          0.333594E-03
      0.295000          0.321598E-03
      0.300000          0.309445E-03
      0.305000          0.297165E-03
      0.310000          0.284792E-03
      0.315000          0.272368E-03
      0.320000          0.259941E-03
      0.325000          0.247567E-03
      0.330000          0.235308E-03
      0.335000          0.223230E-03
      0.340000          0.211406E-03
      0.345000          0.199908E-03
      0.350000          0.188808E-03
      0.355000          0.178176E-03
      0.360000          0.168075E-03
      0.365000          0.158560E-03
      0.370000          0.149676E-03
      0.375000          0.141457E-03
      0.380000          0.133925E-03
      0.385000          0.127087E-03
      0.390000          0.120939E-03
      0.395000          0.115465E-03
      0.400000          0.110637E-03
      0.405000          0.106421E-03
      0.410000          0.102772E-03
      0.415000          0.996438E-04
      0.420000          0.969858E-04
      0.425000          0.947468E-04
      0.430000          0.928763E-04
      0.435000          0.913260E-04
      0.440000          0.900507E-04
      0.445000          0.890088E-04
      0.450000          0.881626E-04
      0.455000          0.874779E-04
      0.460000          0.869241E-04
      0.465000          0.864734E-04
      0.470000          0.861004E-04
      0.475000          0.857818E-04
      0.480000          0.854957E-04
      0.485000          0.852214E-04
      0.490000          0.849397E-04
      0.495000          0.846327E-04
      0.500000          0.842844E-04
