 I_abs(s)[cm^-1]/c[mg/ml]
       0.00000          0.145745E-01
      0.500000E-02      0.145134E-01
      0.100000E-01      0.143314E-01
      0.150000E-01      0.140334E-01
      0.200000E-01      0.136269E-01
      0.250000E-01      0.131219E-01
      0.300000E-01      0.125309E-01
      0.350000E-01      0.118679E-01
      0.400000E-01      0.111481E-01
      0.450000E-01      0.103873E-01
      0.500000E-01      0.960124E-02
      0.550000E-01      0.880539E-02
      0.600000E-01      0.801409E-02
      0.650000E-01      0.724034E-02
      0.700000E-01      0.649543E-02
      0.750000E-01      0.578875E-02
      0.800000E-01      0.512763E-02
      0.850000E-01      0.451733E-02
      0.900000E-01      0.396108E-02
      0.950000E-01      0.346025E-02
      0.100000          0.301453E-02
      0.105000          0.262218E-02
      0.110000          0.228033E-02
      0.115000          0.198521E-02
      0.120000          0.173252E-02
      0.125000          0.151760E-02
      0.130000          0.133572E-02
      0.135000          0.118229E-02
      0.140000          0.105297E-02
      0.145000          0.943812E-03
      0.150000          0.851311E-03
      0.155000          0.772467E-03
      0.160000          0.704763E-03
      0.165000          0.646149E-03
      0.170000          0.594999E-03
      0.175000          0.550051E-03
      0.180000          0.510350E-03
      0.185000          0.475184E-03
      0.190000          0.444024E-03
      0.195000          0.416476E-03
      0.200000          0.392234E-03
      0.205000          0.371046E-03
      0.210000          0.352691E-03
      0.215000          0.336957E-03
      0.220000          0.323634E-03
      0.225000          0.312508E-03
      0.230000          0.303358E-03
      0.235000          0.295958E-03
      0.240000          0.290081E-03
      0.245000          0.285501E-03
      0.250000          0.281994E-03
      0.255000          0.279348E-03
      0.260000          0.277358E-03
      0.265000          0.275832E-03
      0.270000          0.274593E-03
      0.275000          0.273480E-03
      0.280000          0.272349E-03
      0.285000          0.271076E-03
      0.290000          0.269555E-03
      0.295000          0.267702E-03
      0.300000          0.265451E-03
      0.305000          0.262758E-03
      0.310000          0.259597E-03
      0.315000          0.255962E-03
      0.320000          0.251860E-03
      0.325000          0.247312E-03
      0.330000          0.242348E-03
      0.335000          0.237007E-03
      0.340000          0.231332E-03
      0.345000          0.225368E-03
      0.350000          0.219160E-03
      0.355000          0.212752E-03
      0.360000          0.206187E-03
      0.365000          0.199506E-03
      0.370000          0.192750E-03
      0.375000          0.185960E-03
      0.380000          0.179175E-03
      0.385000          0.172440E-03
      0.390000          0.165801E-03
      0.395000          0.159305E-03
      0.400000          0.153003E-03
      0.405000          0.146947E-03
      0.410000          0.141188E-03
      0.415000          0.135774E-03
      0.420000          0.130750E-03
      0.425000          0.126150E-03
      0.430000          0.122001E-03
      0.435000          0.118317E-03
      0.440000          0.115098E-03
      0.445000          0.112331E-03
      0.450000          0.109986E-03
      0.455000          0.108023E-03
      0.460000          0.106387E-03
      0.465000          0.105017E-03
      0.470000          0.103843E-03
      0.475000          0.102794E-03
      0.480000          0.101798E-03
      0.485000          0.100787E-03
      0.490000          0.997010E-04
      0.495000          0.984898E-04
      0.500000          0.971141E-04
