 I_abs(s)[cm^-1]/c[mg/ml]
       0.00000          0.141483E-01
      0.500000E-02      0.140885E-01
      0.100000E-01      0.139108E-01
      0.150000E-01      0.136202E-01
      0.200000E-01      0.132249E-01
      0.250000E-01      0.127356E-01
      0.300000E-01      0.121654E-01
      0.350000E-01      0.115290E-01
      0.400000E-01      0.108422E-01
      0.450000E-01      0.101211E-01
      0.500000E-01      0.938167E-02
      0.550000E-01      0.863889E-02
      0.600000E-01      0.790652E-02
      0.650000E-01      0.719657E-02
      0.700000E-01      0.651897E-02
      0.750000E-01      0.588150E-02
      0.800000E-01      0.528963E-02
      0.850000E-01      0.474668E-02
      0.900000E-01      0.425394E-02
      0.950000E-01      0.381092E-02
      0.100000          0.341567E-02
      0.105000          0.306513E-02
      0.110000          0.275544E-02
      0.115000          0.248232E-02
      0.120000          0.224133E-02
      0.125000          0.202819E-02
      0.130000          0.183892E-02
      0.135000          0.167000E-02
      0.140000          0.151846E-02
      0.145000          0.138189E-02
      0.150000          0.125843E-02
      0.155000          0.114667E-02
      0.160000          0.104559E-02
      0.165000          0.954461E-03
      0.170000          0.872711E-03
      0.175000          0.799861E-03
      0.180000          0.735429E-03
      0.185000          0.678879E-03
      0.190000          0.629585E-03
      0.195000          0.586822E-03
      0.200000          0.549777E-03
      0.205000          0.517578E-03
      0.210000          0.489330E-03
      0.215000          0.464165E-03
      0.220000          0.441282E-03
      0.225000          0.419987E-03
      0.230000          0.399724E-03
      0.235000          0.380092E-03
      0.240000          0.360849E-03
      0.245000          0.341905E-03
      0.250000          0.323301E-03
      0.255000          0.305182E-03
      0.260000          0.287762E-03
      0.265000          0.271286E-03
      0.270000          0.255998E-03
      0.275000          0.242109E-03
      0.280000          0.229770E-03
      0.285000          0.219059E-03
      0.290000          0.209970E-03
      0.295000          0.202416E-03
      0.300000          0.196238E-03
      0.305000          0.191216E-03
      0.310000          0.187094E-03
      0.315000          0.183593E-03
      0.320000          0.180439E-03
      0.325000          0.177380E-03
      0.330000          0.174201E-03
      0.335000          0.170734E-03
      0.340000          0.166868E-03
      0.345000          0.162550E-03
      0.350000          0.157778E-03
      0.355000          0.152599E-03
      0.360000          0.147095E-03
      0.365000          0.141373E-03
      0.370000          0.135554E-03
      0.375000          0.129760E-03
      0.380000          0.124104E-03
      0.385000          0.118682E-03
      0.390000          0.113570E-03
      0.395000          0.108816E-03
      0.400000          0.104445E-03
      0.405000          0.100460E-03
      0.410000          0.968422E-04
      0.415000          0.935607E-04
      0.420000          0.905746E-04
      0.425000          0.878398E-04
      0.430000          0.853138E-04
      0.435000          0.829591E-04
      0.440000          0.807470E-04
      0.445000          0.786583E-04
      0.450000          0.766844E-04
      0.455000          0.748264E-04
      0.460000          0.730936E-04
      0.465000          0.715013E-04
      0.470000          0.700682E-04
      0.475000          0.688141E-04
      0.480000          0.677575E-04
      0.485000          0.669133E-04
      0.490000          0.662914E-04
      0.495000          0.658960E-04
      0.500000          0.657247E-04
