 I_abs(s)[cm^-1]/c[mg/ml]
       0.00000          0.135667E-01
      0.500000E-02      0.134655E-01
      0.100000E-01      0.131670E-01
      0.150000E-01      0.126866E-01
      0.200000E-01      0.120483E-01
      0.250000E-01      0.112832E-01
      0.300000E-01      0.104271E-01
      0.350000E-01      0.951759E-02
      0.400000E-01      0.859198E-02
      0.450000E-01      0.768433E-02
      0.500000E-01      0.682367E-02
      0.550000E-01      0.603251E-02
      0.600000E-01      0.532603E-02
      0.650000E-01      0.471189E-02
      0.700000E-01      0.419081E-02
      0.750000E-01      0.375751E-02
      0.800000E-01      0.340212E-02
      0.850000E-01      0.311182E-02
      0.900000E-01      0.287242E-02
      0.950000E-01      0.266987E-02
      0.100000          0.249150E-02
      0.105000          0.232697E-02
      0.110000          0.216868E-02
      0.115000          0.201199E-02
      0.120000          0.185500E-02
      0.125000          0.169804E-02
      0.130000          0.154312E-02
      0.135000          0.139318E-02
      0.140000          0.125144E-02
      0.145000          0.112086E-02
      0.150000          0.100367E-02
      0.155000          0.901160E-03
      0.160000          0.813596E-03
      0.165000          0.740288E-03
      0.170000          0.679784E-03
      0.175000          0.630132E-03
      0.180000          0.589152E-03
      0.185000          0.554703E-03
      0.190000          0.524892E-03
      0.195000          0.498211E-03
      0.200000          0.473604E-03
      0.205000          0.450457E-03
      0.210000          0.428537E-03
      0.215000          0.407885E-03
      0.220000          0.388700E-03
      0.225000          0.371224E-03
      0.230000          0.355643E-03
      0.235000          0.342028E-03
      0.240000          0.330297E-03
      0.245000          0.320225E-03
      0.250000          0.311469E-03
      0.255000          0.303616E-03
      0.260000          0.296238E-03
      0.265000          0.288947E-03
      0.270000          0.281437E-03
      0.275000          0.273508E-03
      0.280000          0.265082E-03
      0.285000          0.256195E-03
      0.290000          0.246971E-03
      0.295000          0.237603E-03
      0.300000          0.228309E-03
      0.305000          0.219307E-03
      0.310000          0.210787E-03
      0.315000          0.202890E-03
      0.320000          0.195701E-03
      0.325000          0.189248E-03
      0.330000          0.183511E-03
      0.335000          0.178431E-03
      0.340000          0.173928E-03
      0.345000          0.169916E-03
      0.350000          0.166312E-03
      0.355000          0.163049E-03
      0.360000          0.160076E-03
      0.365000          0.157358E-03
      0.370000          0.154875E-03
      0.375000          0.152612E-03
      0.380000          0.150555E-03
      0.385000          0.148684E-03
      0.390000          0.146970E-03
      0.395000          0.145371E-03
      0.400000          0.143840E-03
      0.405000          0.142321E-03
      0.410000          0.140762E-03
      0.415000          0.139119E-03
      0.420000          0.137361E-03
      0.425000          0.135474E-03
      0.430000          0.133468E-03
      0.435000          0.131369E-03
      0.440000          0.129225E-03
      0.445000          0.127092E-03
      0.450000          0.125031E-03
      0.455000          0.123101E-03
      0.460000          0.121351E-03
      0.465000          0.119814E-03
      0.470000          0.118502E-03
      0.475000          0.117408E-03
      0.480000          0.116502E-03
      0.485000          0.115739E-03
      0.490000          0.115059E-03
      0.495000          0.114396E-03
      0.500000          0.113685E-03
