 I_abs(s)[cm^-1]/c[mg/ml]
       0.00000          0.138986E-01
      0.500000E-02      0.138291E-01
      0.100000E-01      0.136226E-01
      0.150000E-01      0.132857E-01
      0.200000E-01      0.128290E-01
      0.250000E-01      0.122663E-01
      0.300000E-01      0.116146E-01
      0.350000E-01      0.108926E-01
      0.400000E-01      0.101203E-01
      0.450000E-01      0.931800E-02
      0.500000E-01      0.850530E-02
      0.550000E-01      0.770054E-02
      0.600000E-01      0.692004E-02
      0.650000E-01      0.617760E-02
      0.700000E-01      0.548415E-02
      0.750000E-01      0.484760E-02
      0.800000E-01      0.427285E-02
      0.850000E-01      0.376194E-02
      0.900000E-01      0.331432E-02
      0.950000E-01      0.292728E-02
      0.100000          0.259641E-02
      0.105000          0.231607E-02
      0.110000          0.207989E-02
      0.115000          0.188127E-02
      0.120000          0.171373E-02
      0.125000          0.157123E-02
      0.130000          0.144849E-02
      0.135000          0.134101E-02
      0.140000          0.124526E-02
      0.145000          0.115855E-02
      0.150000          0.107902E-02
      0.155000          0.100551E-02
      0.160000          0.937349E-03
      0.165000          0.874273E-03
      0.170000          0.816208E-03
      0.175000          0.763162E-03
      0.180000          0.715109E-03
      0.185000          0.671917E-03
      0.190000          0.633305E-03
      0.195000          0.598842E-03
      0.200000          0.567960E-03
      0.205000          0.540003E-03
      0.210000          0.514274E-03
      0.215000          0.490096E-03
      0.220000          0.466863E-03
      0.225000          0.444089E-03
      0.230000          0.421435E-03
      0.235000          0.398724E-03
      0.240000          0.375942E-03
      0.245000          0.353218E-03
      0.250000          0.330799E-03
      0.255000          0.309009E-03
      0.260000          0.288209E-03
      0.265000          0.268757E-03
      0.270000          0.250971E-03
      0.275000          0.235099E-03
      0.280000          0.221296E-03
      0.285000          0.209620E-03
      0.290000          0.200025E-03
      0.295000          0.192372E-03
      0.300000          0.186446E-03
      0.305000          0.181977E-03
      0.310000          0.178661E-03
      0.315000          0.176184E-03
      0.320000          0.174249E-03
      0.325000          0.172585E-03
      0.330000          0.170968E-03
      0.335000          0.169226E-03
      0.340000          0.167241E-03
      0.345000          0.164949E-03
      0.350000          0.162335E-03
      0.355000          0.159420E-03
      0.360000          0.156257E-03
      0.365000          0.152913E-03
      0.370000          0.149468E-03
      0.375000          0.145998E-03
      0.380000          0.142575E-03
      0.385000          0.139256E-03
      0.390000          0.136087E-03
      0.395000          0.133097E-03
      0.400000          0.130304E-03
      0.405000          0.127712E-03
      0.410000          0.125318E-03
      0.415000          0.123115E-03
      0.420000          0.121091E-03
      0.425000          0.119234E-03
      0.430000          0.117534E-03
      0.435000          0.115984E-03
      0.440000          0.114576E-03
      0.445000          0.113307E-03
      0.450000          0.112174E-03
      0.455000          0.111172E-03
      0.460000          0.110299E-03
      0.465000          0.109546E-03
      0.470000          0.108906E-03
      0.475000          0.108365E-03
      0.480000          0.107909E-03
      0.485000          0.107519E-03
      0.490000          0.107175E-03
      0.495000          0.106855E-03
      0.500000          0.106536E-03
