 I_abs(s)[cm^-1]/c[mg/ml]
       0.00000          0.137052E-01
      0.500000E-02      0.135946E-01
      0.100000E-01      0.132691E-01
      0.150000E-01      0.127465E-01
      0.200000E-01      0.120553E-01
      0.250000E-01      0.112311E-01
      0.300000E-01      0.103149E-01
      0.350000E-01      0.934856E-02
      0.400000E-01      0.837255E-02
      0.450000E-01      0.742269E-02
      0.500000E-01      0.652815E-02
      0.550000E-01      0.571022E-02
      0.600000E-01      0.498189E-02
      0.650000E-01      0.434825E-02
      0.700000E-01      0.380757E-02
      0.750000E-01      0.335292E-02
      0.800000E-01      0.297389E-02
      0.850000E-01      0.265836E-02
      0.900000E-01      0.239409E-02
      0.950000E-01      0.216989E-02
      0.100000          0.197641E-02
      0.105000          0.180647E-02
      0.110000          0.165503E-02
      0.115000          0.151886E-02
      0.120000          0.139606E-02
      0.125000          0.128554E-02
      0.130000          0.118654E-02
      0.135000          0.109829E-02
      0.140000          0.101981E-02
      0.145000          0.949852E-03
      0.150000          0.887026E-03
      0.155000          0.829910E-03
      0.160000          0.777233E-03
      0.165000          0.728018E-03
      0.170000          0.681660E-03
      0.175000          0.637931E-03
      0.180000          0.596920E-03
      0.185000          0.558909E-03
      0.190000          0.524244E-03
      0.195000          0.493202E-03
      0.200000          0.465895E-03
      0.205000          0.442219E-03
      0.210000          0.421863E-03
      0.215000          0.404354E-03
      0.220000          0.389132E-03
      0.225000          0.375643E-03
      0.230000          0.363406E-03
      0.235000          0.352071E-03
      0.240000          0.341434E-03
      0.245000          0.331420E-03
      0.250000          0.322045E-03
      0.255000          0.313361E-03
      0.260000          0.305405E-03
      0.265000          0.298159E-03
      0.270000          0.291532E-03
      0.275000          0.285366E-03
      0.280000          0.279462E-03
      0.285000          0.273623E-03
      0.290000          0.267691E-03
      0.295000          0.261584E-03
      0.300000          0.255314E-03
      0.305000          0.248980E-03
      0.310000          0.242750E-03
      0.315000          0.236819E-03
      0.320000          0.231360E-03
      0.325000          0.226490E-03
      0.330000          0.222227E-03
      0.335000          0.218488E-03
      0.340000          0.215087E-03
      0.345000          0.211770E-03
      0.350000          0.208255E-03
      0.355000          0.204279E-03
      0.360000          0.199645E-03
      0.365000          0.194259E-03
      0.370000          0.188148E-03
      0.375000          0.181454E-03
      0.380000          0.174418E-03
      0.385000          0.167340E-03
      0.390000          0.160534E-03
      0.395000          0.154285E-03
      0.400000          0.148803E-03
      0.405000          0.144206E-03
      0.410000          0.140500E-03
      0.415000          0.137590E-03
      0.420000          0.135301E-03
      0.425000          0.133406E-03
      0.430000          0.131666E-03
      0.435000          0.129857E-03
      0.440000          0.127807E-03
      0.445000          0.125405E-03
      0.450000          0.122612E-03
      0.455000          0.119458E-03
      0.460000          0.116022E-03
      0.465000          0.112420E-03
      0.470000          0.108780E-03
      0.475000          0.105223E-03
      0.480000          0.101849E-03
      0.485000          0.987277E-04
      0.490000          0.958930E-04
      0.495000          0.933488E-04
      0.500000          0.910738E-04
