 I_abs(s)[cm^-1]/c[mg/ml]
       0.00000          0.132995E-01
      0.500000E-02      0.132050E-01
      0.100000E-01      0.129262E-01
      0.150000E-01      0.124762E-01
      0.200000E-01      0.118758E-01
      0.250000E-01      0.111519E-01
      0.300000E-01      0.103355E-01
      0.350000E-01      0.945967E-02
      0.400000E-01      0.855713E-02
      0.450000E-01      0.765844E-02
      0.500000E-01      0.679023E-02
      0.550000E-01      0.597405E-02
      0.600000E-01      0.522569E-02
      0.650000E-01      0.455500E-02
      0.700000E-01      0.396628E-02
      0.750000E-01      0.345899E-02
      0.800000E-01      0.302870E-02
      0.850000E-01      0.266827E-02
      0.900000E-01      0.236891E-02
      0.950000E-01      0.212122E-02
      0.100000          0.191604E-02
      0.105000          0.174499E-02
      0.110000          0.160088E-02
      0.115000          0.147780E-02
      0.120000          0.137111E-02
      0.125000          0.127729E-02
      0.130000          0.119369E-02
      0.135000          0.111835E-02
      0.140000          0.104975E-02
      0.145000          0.986705E-03
      0.150000          0.928268E-03
      0.155000          0.873691E-03
      0.160000          0.822427E-03
      0.165000          0.774139E-03
      0.170000          0.728703E-03
      0.175000          0.686191E-03
      0.180000          0.646822E-03
      0.185000          0.610893E-03
      0.190000          0.578692E-03
      0.195000          0.550409E-03
      0.200000          0.526063E-03
      0.205000          0.505458E-03
      0.210000          0.488166E-03
      0.215000          0.473564E-03
      0.220000          0.460891E-03
      0.225000          0.449334E-03
      0.230000          0.438122E-03
      0.235000          0.426613E-03
      0.240000          0.414361E-03
      0.245000          0.401150E-03
      0.250000          0.387000E-03
      0.255000          0.372131E-03
      0.260000          0.356907E-03
      0.265000          0.341766E-03
      0.270000          0.327136E-03
      0.275000          0.313375E-03
      0.280000          0.300721E-03
      0.285000          0.289264E-03
      0.290000          0.278957E-03
      0.295000          0.269634E-03
      0.300000          0.261057E-03
      0.305000          0.252964E-03
      0.310000          0.245118E-03
      0.315000          0.237347E-03
      0.320000          0.229564E-03
      0.325000          0.221775E-03
      0.330000          0.214068E-03
      0.335000          0.206583E-03
      0.340000          0.199485E-03
      0.345000          0.192926E-03
      0.350000          0.187018E-03
      0.355000          0.181812E-03
      0.360000          0.177293E-03
      0.365000          0.173387E-03
      0.370000          0.169972E-03
      0.375000          0.166909E-03
      0.380000          0.164060E-03
      0.385000          0.161311E-03
      0.390000          0.158594E-03
      0.395000          0.155884E-03
      0.400000          0.153206E-03
      0.405000          0.150616E-03
      0.410000          0.148188E-03
      0.415000          0.145995E-03
      0.420000          0.144087E-03
      0.425000          0.142482E-03
      0.430000          0.141156E-03
      0.435000          0.140043E-03
      0.440000          0.139046E-03
      0.445000          0.138047E-03
      0.450000          0.136926E-03
      0.455000          0.135576E-03
      0.460000          0.133919E-03
      0.465000          0.131913E-03
      0.470000          0.129557E-03
      0.475000          0.126892E-03
      0.480000          0.123987E-03
      0.485000          0.120931E-03
      0.490000          0.117820E-03
      0.495000          0.114742E-03
      0.500000          0.111771E-03
