 I_abs(s)[cm^-1]/c[mg/ml]
       0.00000          0.141953E-01
      0.500000E-02      0.141503E-01
      0.100000E-01      0.140163E-01
      0.150000E-01      0.137958E-01
      0.200000E-01      0.134932E-01
      0.250000E-01      0.131143E-01
      0.300000E-01      0.126663E-01
      0.350000E-01      0.121575E-01
      0.400000E-01      0.115973E-01
      0.450000E-01      0.109953E-01
      0.500000E-01      0.103620E-01
      0.550000E-01      0.970740E-02
      0.600000E-01      0.904172E-02
      0.650000E-01      0.837457E-02
      0.700000E-01      0.771488E-02
      0.750000E-01      0.707075E-02
      0.800000E-01      0.644925E-02
      0.850000E-01      0.585633E-02
      0.900000E-01      0.529676E-02
      0.950000E-01      0.477409E-02
      0.100000          0.429069E-02
      0.105000          0.384778E-02
      0.110000          0.344555E-02
      0.115000          0.308326E-02
      0.120000          0.275937E-02
      0.125000          0.247169E-02
      0.130000          0.221754E-02
      0.135000          0.199391E-02
      0.140000          0.179758E-02
      0.145000          0.162528E-02
      0.150000          0.147382E-02
      0.155000          0.134014E-02
      0.160000          0.122144E-02
      0.165000          0.111522E-02
      0.170000          0.101932E-02
      0.175000          0.931906E-03
      0.180000          0.851526E-03
      0.185000          0.777044E-03
      0.190000          0.707629E-03
      0.195000          0.642714E-03
      0.200000          0.581953E-03
      0.205000          0.525169E-03
      0.210000          0.472310E-03
      0.215000          0.423401E-03
      0.220000          0.378507E-03
      0.225000          0.337695E-03
      0.230000          0.301010E-03
      0.235000          0.268451E-03
      0.240000          0.239960E-03
      0.245000          0.215418E-03
      0.250000          0.194639E-03
      0.255000          0.177383E-03
      0.260000          0.163358E-03
      0.265000          0.152237E-03
      0.270000          0.143665E-03
      0.275000          0.137281E-03
      0.280000          0.132722E-03
      0.285000          0.129642E-03
      0.290000          0.127717E-03
      0.295000          0.126657E-03
      0.300000          0.126205E-03
      0.305000          0.126146E-03
      0.310000          0.126304E-03
      0.315000          0.126544E-03
      0.320000          0.126761E-03
      0.325000          0.126888E-03
      0.330000          0.126878E-03
      0.335000          0.126711E-03
      0.340000          0.126378E-03
      0.345000          0.125883E-03
      0.350000          0.125238E-03
      0.355000          0.124456E-03
      0.360000          0.123551E-03
      0.365000          0.122538E-03
      0.370000          0.121427E-03
      0.375000          0.120226E-03
      0.380000          0.118943E-03
      0.385000          0.117582E-03
      0.390000          0.116147E-03
      0.395000          0.114645E-03
      0.400000          0.113082E-03
      0.405000          0.111468E-03
      0.410000          0.109817E-03
      0.415000          0.108144E-03
      0.420000          0.106471E-03
      0.425000          0.104820E-03
      0.430000          0.103216E-03
      0.435000          0.101687E-03
      0.440000          0.100258E-03
      0.445000          0.989553E-04
      0.450000          0.978000E-04
      0.455000          0.968103E-04
      0.460000          0.959982E-04
      0.465000          0.953697E-04
      0.470000          0.949236E-04
      0.475000          0.946514E-04
      0.480000          0.945372E-04
      0.485000          0.945584E-04
      0.490000          0.946864E-04
      0.495000          0.948879E-04
      0.500000          0.951261E-04
