 I_abs(s)[cm^-1]/c[mg/ml]
       0.00000          0.138551E-01
      0.500000E-02      0.137639E-01
      0.100000E-01      0.134939E-01
      0.150000E-01      0.130552E-01
      0.200000E-01      0.124640E-01
      0.250000E-01      0.117418E-01
      0.300000E-01      0.109139E-01
      0.350000E-01      0.100087E-01
      0.400000E-01      0.905529E-02
      0.450000E-01      0.808296E-02
      0.500000E-01      0.711917E-02
      0.550000E-01      0.618865E-02
      0.600000E-01      0.531239E-02
      0.650000E-01      0.450701E-02
      0.700000E-01      0.378439E-02
      0.750000E-01      0.315161E-02
      0.800000E-01      0.261122E-02
      0.850000E-01      0.216168E-02
      0.900000E-01      0.179800E-02
      0.950000E-01      0.151250E-02
      0.100000          0.129566E-02
      0.105000          0.113689E-02
      0.110000          0.102530E-02
      0.115000          0.950327E-03
      0.120000          0.902231E-03
      0.125000          0.872489E-03
      0.130000          0.853989E-03
      0.135000          0.841120E-03
      0.140000          0.829731E-03
      0.145000          0.817013E-03
      0.150000          0.801303E-03
      0.155000          0.781867E-03
      0.160000          0.758667E-03
      0.165000          0.732145E-03
      0.170000          0.703023E-03
      0.175000          0.672149E-03
      0.180000          0.640381E-03
      0.185000          0.608501E-03
      0.190000          0.577170E-03
      0.195000          0.546914E-03
      0.200000          0.518117E-03
      0.205000          0.491036E-03
      0.210000          0.465824E-03
      0.215000          0.442544E-03
      0.220000          0.421193E-03
      0.225000          0.401715E-03
      0.230000          0.384013E-03
      0.235000          0.367961E-03
      0.240000          0.353406E-03
      0.245000          0.340181E-03
      0.250000          0.328108E-03
      0.255000          0.317005E-03
      0.260000          0.306696E-03
      0.265000          0.297015E-03
      0.270000          0.287816E-03
      0.275000          0.278978E-03
      0.280000          0.270403E-03
      0.285000          0.262024E-03
      0.290000          0.253796E-03
      0.295000          0.245699E-03
      0.300000          0.237725E-03
      0.305000          0.229880E-03
      0.310000          0.222172E-03
      0.315000          0.214612E-03
      0.320000          0.207208E-03
      0.325000          0.199969E-03
      0.330000          0.192898E-03
      0.335000          0.186004E-03
      0.340000          0.179300E-03
      0.345000          0.172804E-03
      0.350000          0.166548E-03
      0.355000          0.160572E-03
      0.360000          0.154924E-03
      0.365000          0.149661E-03
      0.370000          0.144839E-03
      0.375000          0.140508E-03
      0.380000          0.136710E-03
      0.385000          0.133467E-03
      0.390000          0.130782E-03
      0.395000          0.128633E-03
      0.400000          0.126973E-03
      0.405000          0.125733E-03
      0.410000          0.124827E-03
      0.415000          0.124155E-03
      0.420000          0.123613E-03
      0.425000          0.123103E-03
      0.430000          0.122531E-03
      0.435000          0.121824E-03
      0.440000          0.120928E-03
      0.445000          0.119810E-03
      0.450000          0.118462E-03
      0.455000          0.116895E-03
      0.460000          0.115137E-03
      0.465000          0.113232E-03
      0.470000          0.111229E-03
      0.475000          0.109179E-03
      0.480000          0.107134E-03
      0.485000          0.105139E-03
      0.490000          0.103229E-03
      0.495000          0.101434E-03
      0.500000          0.997701E-04
