 I_abs(s)[cm^-1]/c[mg/ml]
       0.00000          0.143707E-01
      0.500000E-02      0.142907E-01
      0.100000E-01      0.140534E-01
      0.150000E-01      0.136667E-01
      0.200000E-01      0.131429E-01
      0.250000E-01      0.124990E-01
      0.300000E-01      0.117547E-01
      0.350000E-01      0.109328E-01
      0.400000E-01      0.100568E-01
      0.450000E-01      0.915104E-02
      0.500000E-01      0.823883E-02
      0.550000E-01      0.734194E-02
      0.600000E-01      0.647963E-02
      0.650000E-01      0.566812E-02
      0.700000E-01      0.492008E-02
      0.750000E-01      0.424447E-02
      0.800000E-01      0.364649E-02
      0.850000E-01      0.312780E-02
      0.900000E-01      0.268686E-02
      0.950000E-01      0.231938E-02
      0.100000          0.201897E-02
      0.105000          0.177766E-02
      0.110000          0.158663E-02
      0.115000          0.143674E-02
      0.120000          0.131907E-02
      0.125000          0.122540E-02
      0.130000          0.114849E-02
      0.135000          0.108233E-02
      0.140000          0.102226E-02
      0.145000          0.964939E-03
      0.150000          0.908275E-03
      0.155000          0.851273E-03
      0.160000          0.793819E-03
      0.165000          0.736459E-03
      0.170000          0.680157E-03
      0.175000          0.626078E-03
      0.180000          0.575393E-03
      0.185000          0.529125E-03
      0.190000          0.488039E-03
      0.195000          0.452578E-03
      0.200000          0.422844E-03
      0.205000          0.398614E-03
      0.210000          0.379386E-03
      0.215000          0.364445E-03
      0.220000          0.352944E-03
      0.225000          0.343982E-03
      0.230000          0.336680E-03
      0.235000          0.330242E-03
      0.240000          0.324006E-03
      0.245000          0.317470E-03
      0.250000          0.310308E-03
      0.255000          0.302365E-03
      0.260000          0.293641E-03
      0.265000          0.284261E-03
      0.270000          0.274446E-03
      0.275000          0.264469E-03
      0.280000          0.254628E-03
      0.285000          0.245208E-03
      0.290000          0.236459E-03
      0.295000          0.228573E-03
      0.300000          0.221673E-03
      0.305000          0.215812E-03
      0.310000          0.210968E-03
      0.315000          0.207061E-03
      0.320000          0.203954E-03
      0.325000          0.201474E-03
      0.330000          0.199426E-03
      0.335000          0.197606E-03
      0.340000          0.195817E-03
      0.345000          0.193880E-03
      0.350000          0.191644E-03
      0.355000          0.188994E-03
      0.360000          0.185851E-03
      0.365000          0.182180E-03
      0.370000          0.177983E-03
      0.375000          0.173298E-03
      0.380000          0.168196E-03
      0.385000          0.162770E-03
      0.390000          0.157132E-03
      0.395000          0.151405E-03
      0.400000          0.145716E-03
      0.405000          0.140184E-03
      0.410000          0.134924E-03
      0.415000          0.130030E-03
      0.420000          0.125582E-03
      0.425000          0.121634E-03
      0.430000          0.118220E-03
      0.435000          0.115352E-03
      0.440000          0.113018E-03
      0.445000          0.111189E-03
      0.450000          0.109822E-03
      0.455000          0.108861E-03
      0.460000          0.108243E-03
      0.465000          0.107901E-03
      0.470000          0.107770E-03
      0.475000          0.107788E-03
      0.480000          0.107898E-03
      0.485000          0.108054E-03
      0.490000          0.108215E-03
      0.495000          0.108350E-03
      0.500000          0.108435E-03
