 I_abs(s)[cm^-1]/c[mg/ml]
       0.00000          0.147436E-01
      0.500000E-02      0.146846E-01
      0.100000E-01      0.145092E-01
      0.150000E-01      0.142214E-01
      0.200000E-01      0.138280E-01
      0.250000E-01      0.133380E-01
      0.300000E-01      0.127624E-01
      0.350000E-01      0.121139E-01
      0.400000E-01      0.114062E-01
      0.450000E-01      0.106540E-01
      0.500000E-01      0.987168E-02
      0.550000E-01      0.907386E-02
      0.600000E-01      0.827425E-02
      0.650000E-01      0.748555E-02
      0.700000E-01      0.671913E-02
      0.750000E-01      0.598477E-02
      0.800000E-01      0.529053E-02
      0.850000E-01      0.464268E-02
      0.900000E-01      0.404567E-02
      0.950000E-01      0.350225E-02
      0.100000          0.301355E-02
      0.105000          0.257929E-02
      0.110000          0.219798E-02
      0.115000          0.186712E-02
      0.120000          0.158346E-02
      0.125000          0.134320E-02
      0.130000          0.114223E-02
      0.135000          0.976269E-03
      0.140000          0.841064E-03
      0.145000          0.732494E-03
      0.150000          0.646673E-03
      0.155000          0.580010E-03
      0.160000          0.529251E-03
      0.165000          0.491491E-03
      0.170000          0.464172E-03
      0.175000          0.445067E-03
      0.180000          0.432257E-03
      0.185000          0.424099E-03
      0.190000          0.419197E-03
      0.195000          0.416376E-03
      0.200000          0.414656E-03
      0.205000          0.413231E-03
      0.210000          0.411452E-03
      0.215000          0.408812E-03
      0.220000          0.404939E-03
      0.225000          0.399582E-03
      0.230000          0.392604E-03
      0.235000          0.383974E-03
      0.240000          0.373748E-03
      0.245000          0.362067E-03
      0.250000          0.349133E-03
      0.255000          0.335196E-03
      0.260000          0.320539E-03
      0.265000          0.305461E-03
      0.270000          0.290257E-03
      0.275000          0.275208E-03
      0.280000          0.260568E-03
      0.285000          0.246553E-03
      0.290000          0.233337E-03
      0.295000          0.221048E-03
      0.300000          0.209768E-03
      0.305000          0.199536E-03
      0.310000          0.190354E-03
      0.315000          0.182191E-03
      0.320000          0.174990E-03
      0.325000          0.168677E-03
      0.330000          0.163169E-03
      0.335000          0.158375E-03
      0.340000          0.154205E-03
      0.345000          0.150572E-03
      0.350000          0.147397E-03
      0.355000          0.144607E-03
      0.360000          0.142134E-03
      0.365000          0.139921E-03
      0.370000          0.137916E-03
      0.375000          0.136073E-03
      0.380000          0.134350E-03
      0.385000          0.132709E-03
      0.390000          0.131117E-03
      0.395000          0.129546E-03
      0.400000          0.127971E-03
      0.405000          0.126371E-03
      0.410000          0.124733E-03
      0.415000          0.123047E-03
      0.420000          0.121311E-03
      0.425000          0.119526E-03
      0.430000          0.117702E-03
      0.435000          0.115850E-03
      0.440000          0.113984E-03
      0.445000          0.112121E-03
      0.450000          0.110277E-03
      0.455000          0.108465E-03
      0.460000          0.106695E-03
      0.465000          0.104975E-03
      0.470000          0.103305E-03
      0.475000          0.101682E-03
      0.480000          0.100096E-03
      0.485000          0.985349E-04
      0.490000          0.969829E-04
      0.495000          0.954228E-04
      0.500000          0.938377E-04
