 I_abs(s)[cm^-1]/c[mg/ml]
       0.00000          0.141273E-01
      0.500000E-02      0.140515E-01
      0.100000E-01      0.138262E-01
      0.150000E-01      0.134581E-01
      0.200000E-01      0.129578E-01
      0.250000E-01      0.123398E-01
      0.300000E-01      0.116214E-01
      0.350000E-01      0.108223E-01
      0.400000E-01      0.996372E-02
      0.450000E-01      0.906761E-02
      0.500000E-01      0.815573E-02
      0.550000E-01      0.724889E-02
      0.600000E-01      0.636625E-02
      0.650000E-01      0.552471E-02
      0.700000E-01      0.473846E-02
      0.750000E-01      0.401859E-02
      0.800000E-01      0.337301E-02
      0.850000E-01      0.280638E-02
      0.900000E-01      0.232025E-02
      0.950000E-01      0.191334E-02
      0.100000          0.158190E-02
      0.105000          0.132011E-02
      0.110000          0.112064E-02
      0.115000          0.975101E-03
      0.120000          0.874567E-03
      0.125000          0.810045E-03
      0.130000          0.772883E-03
      0.135000          0.755112E-03
      0.140000          0.749705E-03
      0.145000          0.750753E-03
      0.150000          0.753557E-03
      0.155000          0.754640E-03
      0.160000          0.751687E-03
      0.165000          0.743432E-03
      0.170000          0.729503E-03
      0.175000          0.710240E-03
      0.180000          0.686499E-03
      0.185000          0.659463E-03
      0.190000          0.630463E-03
      0.195000          0.600827E-03
      0.200000          0.571752E-03
      0.205000          0.544219E-03
      0.210000          0.518936E-03
      0.215000          0.496316E-03
      0.220000          0.476483E-03
      0.225000          0.459304E-03
      0.230000          0.444436E-03
      0.235000          0.431388E-03
      0.240000          0.419585E-03
      0.245000          0.408430E-03
      0.250000          0.397362E-03
      0.255000          0.385904E-03
      0.260000          0.373697E-03
      0.265000          0.360521E-03
      0.270000          0.346302E-03
      0.275000          0.331109E-03
      0.280000          0.315134E-03
      0.285000          0.298670E-03
      0.290000          0.282079E-03
      0.295000          0.265761E-03
      0.300000          0.250119E-03
      0.305000          0.235531E-03
      0.310000          0.222321E-03
      0.315000          0.210739E-03
      0.320000          0.200951E-03
      0.325000          0.193029E-03
      0.330000          0.186951E-03
      0.335000          0.182610E-03
      0.340000          0.179823E-03
      0.345000          0.178347E-03
      0.350000          0.177898E-03
      0.355000          0.178167E-03
      0.360000          0.178840E-03
      0.365000          0.179616E-03
      0.370000          0.180223E-03
      0.375000          0.180426E-03
      0.380000          0.180041E-03
      0.385000          0.178935E-03
      0.390000          0.177033E-03
      0.395000          0.174312E-03
      0.400000          0.170799E-03
      0.405000          0.166567E-03
      0.410000          0.161720E-03
      0.415000          0.156390E-03
      0.420000          0.150726E-03
      0.425000          0.144882E-03
      0.430000          0.139010E-03
      0.435000          0.133253E-03
      0.440000          0.127739E-03
      0.445000          0.122573E-03
      0.450000          0.117835E-03
      0.455000          0.113582E-03
      0.460000          0.109844E-03
      0.465000          0.106625E-03
      0.470000          0.103908E-03
      0.475000          0.101658E-03
      0.480000          0.998256E-04
      0.485000          0.983491E-04
      0.490000          0.971621E-04
      0.495000          0.961964E-04
      0.500000          0.953854E-04
