 I_abs(s)[cm^-1]/c[mg/ml]
       0.00000          0.148395E-01
      0.500000E-02      0.147903E-01
      0.100000E-01      0.146434E-01
      0.150000E-01      0.144018E-01
      0.200000E-01      0.140702E-01
      0.250000E-01      0.136550E-01
      0.300000E-01      0.131638E-01
      0.350000E-01      0.126060E-01
      0.400000E-01      0.119914E-01
      0.450000E-01      0.113308E-01
      0.500000E-01      0.106354E-01
      0.550000E-01      0.991631E-02
      0.600000E-01      0.918463E-02
      0.650000E-01      0.845087E-02
      0.700000E-01      0.772487E-02
      0.750000E-01      0.701557E-02
      0.800000E-01      0.633083E-02
      0.850000E-01      0.567733E-02
      0.900000E-01      0.506050E-02
      0.950000E-01      0.448450E-02
      0.100000          0.395222E-02
      0.105000          0.346534E-02
      0.110000          0.302445E-02
      0.115000          0.262910E-02
      0.120000          0.227802E-02
      0.125000          0.196917E-02
      0.130000          0.169997E-02
      0.135000          0.146743E-02
      0.140000          0.126826E-02
      0.145000          0.109905E-02
      0.150000          0.956344E-03
      0.155000          0.836790E-03
      0.160000          0.737178E-03
      0.165000          0.654525E-03
      0.170000          0.586109E-03
      0.175000          0.529499E-03
      0.180000          0.482565E-03
      0.185000          0.443471E-03
      0.190000          0.410669E-03
      0.195000          0.382870E-03
      0.200000          0.359025E-03
      0.205000          0.338287E-03
      0.210000          0.319992E-03
      0.215000          0.303619E-03
      0.220000          0.288772E-03
      0.225000          0.275150E-03
      0.230000          0.262529E-03
      0.235000          0.250745E-03
      0.240000          0.239680E-03
      0.245000          0.229251E-03
      0.250000          0.219403E-03
      0.255000          0.210104E-03
      0.260000          0.201337E-03
      0.265000          0.193100E-03
      0.270000          0.185400E-03
      0.275000          0.178254E-03
      0.280000          0.171683E-03
      0.285000          0.165710E-03
      0.290000          0.160359E-03
      0.295000          0.155648E-03
      0.300000          0.151590E-03
      0.305000          0.148189E-03
      0.310000          0.145437E-03
      0.315000          0.143314E-03
      0.320000          0.141788E-03
      0.325000          0.140810E-03
      0.330000          0.140323E-03
      0.335000          0.140256E-03
      0.340000          0.140529E-03
      0.345000          0.141057E-03
      0.350000          0.141752E-03
      0.355000          0.142524E-03
      0.360000          0.143287E-03
      0.365000          0.143961E-03
      0.370000          0.144475E-03
      0.375000          0.144767E-03
      0.380000          0.144789E-03
      0.385000          0.144504E-03
      0.390000          0.143890E-03
      0.395000          0.142938E-03
      0.400000          0.141651E-03
      0.405000          0.140045E-03
      0.410000          0.138142E-03
      0.415000          0.135975E-03
      0.420000          0.133582E-03
      0.425000          0.131004E-03
      0.430000          0.128284E-03
      0.435000          0.125465E-03
      0.440000          0.122588E-03
      0.445000          0.119690E-03
      0.450000          0.116804E-03
      0.455000          0.113959E-03
      0.460000          0.111176E-03
      0.465000          0.108472E-03
      0.470000          0.105857E-03
      0.475000          0.103338E-03
      0.480000          0.100915E-03
      0.485000          0.985854E-04
      0.490000          0.963442E-04
      0.495000          0.941840E-04
      0.500000          0.920970E-04
