 I_abs(s)[cm^-1]/c[mg/ml]
       0.00000          0.142919E-01
      0.500000E-02      0.142276E-01
      0.100000E-01      0.140365E-01
      0.150000E-01      0.137245E-01
      0.200000E-01      0.133010E-01
      0.250000E-01      0.127782E-01
      0.300000E-01      0.121712E-01
      0.350000E-01      0.114965E-01
      0.400000E-01      0.107718E-01
      0.450000E-01      0.100149E-01
      0.500000E-01      0.924307E-02
      0.550000E-01      0.847242E-02
      0.600000E-01      0.771731E-02
      0.650000E-01      0.698993E-02
      0.700000E-01      0.630006E-02
      0.750000E-01      0.565494E-02
      0.800000E-01      0.505931E-02
      0.850000E-01      0.451558E-02
      0.900000E-01      0.402411E-02
      0.950000E-01      0.358353E-02
      0.100000          0.319112E-02
      0.105000          0.284323E-02
      0.110000          0.253566E-02
      0.115000          0.226395E-02
      0.120000          0.202374E-02
      0.125000          0.181095E-02
      0.130000          0.162192E-02
      0.135000          0.145350E-02
      0.140000          0.130311E-02
      0.145000          0.116863E-02
      0.150000          0.104842E-02
      0.155000          0.941172E-03
      0.160000          0.845835E-03
      0.165000          0.761528E-03
      0.170000          0.687446E-03
      0.175000          0.622803E-03
      0.180000          0.566788E-03
      0.185000          0.518543E-03
      0.190000          0.477166E-03
      0.195000          0.441726E-03
      0.200000          0.411288E-03
      0.205000          0.384949E-03
      0.210000          0.361868E-03
      0.215000          0.341301E-03
      0.220000          0.322620E-03
      0.225000          0.305330E-03
      0.230000          0.289071E-03
      0.235000          0.273616E-03
      0.240000          0.258854E-03
      0.245000          0.244768E-03
      0.250000          0.231417E-03
      0.255000          0.218905E-03
      0.260000          0.207356E-03
      0.265000          0.196892E-03
      0.270000          0.187614E-03
      0.275000          0.179587E-03
      0.280000          0.172830E-03
      0.285000          0.167317E-03
      0.290000          0.162973E-03
      0.295000          0.159683E-03
      0.300000          0.157296E-03
      0.305000          0.155640E-03
      0.310000          0.154530E-03
      0.315000          0.153778E-03
      0.320000          0.153207E-03
      0.325000          0.152657E-03
      0.330000          0.151990E-03
      0.335000          0.151099E-03
      0.340000          0.149907E-03
      0.345000          0.148370E-03
      0.350000          0.146474E-03
      0.355000          0.144232E-03
      0.360000          0.141680E-03
      0.365000          0.138875E-03
      0.370000          0.135883E-03
      0.375000          0.132781E-03
      0.380000          0.129645E-03
      0.385000          0.126550E-03
      0.390000          0.123565E-03
      0.395000          0.120747E-03
      0.400000          0.118143E-03
      0.405000          0.115785E-03
      0.410000          0.113694E-03
      0.415000          0.111876E-03
      0.420000          0.110327E-03
      0.425000          0.109032E-03
      0.430000          0.107968E-03
      0.435000          0.107108E-03
      0.440000          0.106422E-03
      0.445000          0.105877E-03
      0.450000          0.105442E-03
      0.455000          0.105086E-03
      0.460000          0.104783E-03
      0.465000          0.104508E-03
      0.470000          0.104240E-03
      0.475000          0.103961E-03
      0.480000          0.103654E-03
      0.485000          0.103304E-03
      0.490000          0.102898E-03
      0.495000          0.102423E-03
      0.500000          0.101866E-03
