 I_abs(s)[cm^-1]/c[mg/ml]
       0.00000          0.146718E-01
      0.500000E-02      0.146267E-01
      0.100000E-01      0.144922E-01
      0.150000E-01      0.142708E-01
      0.200000E-01      0.139667E-01
      0.250000E-01      0.135854E-01
      0.300000E-01      0.131338E-01
      0.350000E-01      0.126198E-01
      0.400000E-01      0.120523E-01
      0.450000E-01      0.114407E-01
      0.500000E-01      0.107948E-01
      0.550000E-01      0.101246E-01
      0.600000E-01      0.943993E-02
      0.650000E-01      0.875008E-02
      0.700000E-01      0.806393E-02
      0.750000E-01      0.738957E-02
      0.800000E-01      0.673419E-02
      0.850000E-01      0.610398E-02
      0.900000E-01      0.550411E-02
      0.950000E-01      0.493862E-02
      0.100000          0.441051E-02
      0.105000          0.392174E-02
      0.110000          0.347331E-02
      0.115000          0.306532E-02
      0.120000          0.269713E-02
      0.125000          0.236743E-02
      0.130000          0.207437E-02
      0.135000          0.181572E-02
      0.140000          0.158892E-02
      0.145000          0.139124E-02
      0.150000          0.121989E-02
      0.155000          0.107204E-02
      0.160000          0.944948E-03
      0.165000          0.836012E-03
      0.170000          0.742788E-03
      0.175000          0.663039E-03
      0.180000          0.594746E-03
      0.185000          0.536119E-03
      0.190000          0.485591E-03
      0.195000          0.441815E-03
      0.200000          0.403645E-03
      0.205000          0.370123E-03
      0.210000          0.340459E-03
      0.215000          0.314010E-03
      0.220000          0.290259E-03
      0.225000          0.268801E-03
      0.230000          0.249315E-03
      0.235000          0.231560E-03
      0.240000          0.215348E-03
      0.245000          0.200541E-03
      0.250000          0.187033E-03
      0.255000          0.174746E-03
      0.260000          0.163617E-03
      0.265000          0.153596E-03
      0.270000          0.144640E-03
      0.275000          0.136706E-03
      0.280000          0.129753E-03
      0.285000          0.123734E-03
      0.290000          0.118602E-03
      0.295000          0.114303E-03
      0.300000          0.110780E-03
      0.305000          0.107971E-03
      0.310000          0.105812E-03
      0.315000          0.104235E-03
      0.320000          0.103173E-03
      0.325000          0.102559E-03
      0.330000          0.102325E-03
      0.335000          0.102409E-03
      0.340000          0.102749E-03
      0.345000          0.103291E-03
      0.350000          0.103981E-03
      0.355000          0.104773E-03
      0.360000          0.105626E-03
      0.365000          0.106500E-03
      0.370000          0.107362E-03
      0.375000          0.108184E-03
      0.380000          0.108939E-03
      0.385000          0.109604E-03
      0.390000          0.110159E-03
      0.395000          0.110586E-03
      0.400000          0.110870E-03
      0.405000          0.110998E-03
      0.410000          0.110959E-03
      0.415000          0.110745E-03
      0.420000          0.110350E-03
      0.425000          0.109773E-03
      0.430000          0.109014E-03
      0.435000          0.108079E-03
      0.440000          0.106976E-03
      0.445000          0.105716E-03
      0.450000          0.104317E-03
      0.455000          0.102797E-03
      0.460000          0.101178E-03
      0.465000          0.994852E-04
      0.470000          0.977448E-04
      0.475000          0.959840E-04
      0.480000          0.942301E-04
      0.485000          0.925099E-04
      0.490000          0.908481E-04
      0.495000          0.892677E-04
      0.500000          0.877880E-04
