 I_abs(s)[cm^-1]/c[mg/ml]
       0.00000          0.144575E-01
      0.500000E-02      0.143987E-01
      0.100000E-01      0.142239E-01
      0.150000E-01      0.139373E-01
      0.200000E-01      0.135461E-01
      0.250000E-01      0.130598E-01
      0.300000E-01      0.124900E-01
      0.350000E-01      0.118501E-01
      0.400000E-01      0.111544E-01
      0.450000E-01      0.104180E-01
      0.500000E-01      0.965600E-02
      0.550000E-01      0.888323E-02
      0.600000E-01      0.811363E-02
      0.650000E-01      0.735988E-02
      0.700000E-01      0.663313E-02
      0.750000E-01      0.594273E-02
      0.800000E-01      0.529607E-02
      0.850000E-01      0.469856E-02
      0.900000E-01      0.415362E-02
      0.950000E-01      0.366282E-02
      0.100000          0.322603E-02
      0.105000          0.284164E-02
      0.110000          0.250682E-02
      0.115000          0.221782E-02
      0.120000          0.197022E-02
      0.125000          0.175919E-02
      0.130000          0.157981E-02
      0.135000          0.142719E-02
      0.140000          0.129675E-02
      0.145000          0.118427E-02
      0.150000          0.108607E-02
      0.155000          0.999004E-03
      0.160000          0.920511E-03
      0.165000          0.848597E-03
      0.170000          0.781794E-03
      0.175000          0.719098E-03
      0.180000          0.659898E-03
      0.185000          0.603901E-03
      0.190000          0.551043E-03
      0.195000          0.501418E-03
      0.200000          0.455209E-03
      0.205000          0.412626E-03
      0.210000          0.373862E-03
      0.215000          0.339052E-03
      0.220000          0.308259E-03
      0.225000          0.281454E-03
      0.230000          0.258518E-03
      0.235000          0.239245E-03
      0.240000          0.223355E-03
      0.245000          0.210512E-03
      0.250000          0.200335E-03
      0.255000          0.192424E-03
      0.260000          0.186371E-03
      0.265000          0.181784E-03
      0.270000          0.178292E-03
      0.275000          0.175563E-03
      0.280000          0.173310E-03
      0.285000          0.171293E-03
      0.290000          0.169326E-03
      0.295000          0.167269E-03
      0.300000          0.165032E-03
      0.305000          0.162568E-03
      0.310000          0.159864E-03
      0.315000          0.156938E-03
      0.320000          0.153828E-03
      0.325000          0.150587E-03
      0.330000          0.147277E-03
      0.335000          0.143958E-03
      0.340000          0.140690E-03
      0.345000          0.137523E-03
      0.350000          0.134496E-03
      0.355000          0.131636E-03
      0.360000          0.128959E-03
      0.365000          0.126468E-03
      0.370000          0.124157E-03
      0.375000          0.122012E-03
      0.380000          0.120013E-03
      0.385000          0.118138E-03
      0.390000          0.116367E-03
      0.395000          0.114678E-03
      0.400000          0.113058E-03
      0.405000          0.111495E-03
      0.410000          0.109984E-03
      0.415000          0.108525E-03
      0.420000          0.107122E-03
      0.425000          0.105781E-03
      0.430000          0.104512E-03
      0.435000          0.103320E-03
      0.440000          0.102211E-03
      0.445000          0.101187E-03
      0.450000          0.100244E-03
      0.455000          0.993763E-04
      0.460000          0.985698E-04
      0.465000          0.978083E-04
      0.470000          0.970722E-04
      0.475000          0.963406E-04
      0.480000          0.955927E-04
      0.485000          0.948099E-04
      0.490000          0.939773E-04
      0.495000          0.930850E-04
      0.500000          0.921293E-04
