 I_abs(s)[cm^-1]/c[mg/ml]
       0.00000          0.144259E-01
      0.500000E-02      0.143613E-01
      0.100000E-01      0.141695E-01
      0.150000E-01      0.138556E-01
      0.200000E-01      0.134283E-01
      0.250000E-01      0.128989E-01
      0.300000E-01      0.122813E-01
      0.350000E-01      0.115911E-01
      0.400000E-01      0.108451E-01
      0.450000E-01      0.100606E-01
      0.500000E-01      0.925466E-02
      0.550000E-01      0.844371E-02
      0.600000E-01      0.764283E-02
      0.650000E-01      0.686540E-02
      0.700000E-01      0.612277E-02
      0.750000E-01      0.542410E-02
      0.800000E-01      0.477624E-02
      0.850000E-01      0.418376E-02
      0.900000E-01      0.364912E-02
      0.950000E-01      0.317284E-02
      0.100000          0.275378E-02
      0.105000          0.238945E-02
      0.110000          0.207630E-02
      0.115000          0.181003E-02
      0.120000          0.158592E-02
      0.125000          0.139904E-02
      0.130000          0.124447E-02
      0.135000          0.111750E-02
      0.140000          0.101373E-02
      0.145000          0.929140E-03
      0.150000          0.860168E-03
      0.155000          0.803700E-03
      0.160000          0.757068E-03
      0.165000          0.718022E-03
      0.170000          0.684699E-03
      0.175000          0.655575E-03
      0.180000          0.629429E-03
      0.185000          0.605302E-03
      0.190000          0.582463E-03
      0.195000          0.560372E-03
      0.200000          0.538655E-03
      0.205000          0.517078E-03
      0.210000          0.495523E-03
      0.215000          0.473968E-03
      0.220000          0.452460E-03
      0.225000          0.431106E-03
      0.230000          0.410043E-03
      0.235000          0.389429E-03
      0.240000          0.369426E-03
      0.245000          0.350185E-03
      0.250000          0.331841E-03
      0.255000          0.314502E-03
      0.260000          0.298252E-03
      0.265000          0.283145E-03
      0.270000          0.269207E-03
      0.275000          0.256446E-03
      0.280000          0.244849E-03
      0.285000          0.234388E-03
      0.290000          0.225026E-03
      0.295000          0.216716E-03
      0.300000          0.209403E-03
      0.305000          0.203028E-03
      0.310000          0.197520E-03
      0.315000          0.192801E-03
      0.320000          0.188780E-03
      0.325000          0.185357E-03
      0.330000          0.182417E-03
      0.335000          0.179839E-03
      0.340000          0.177494E-03
      0.345000          0.175250E-03
      0.350000          0.172980E-03
      0.355000          0.170567E-03
      0.360000          0.167910E-03
      0.365000          0.164932E-03
      0.370000          0.161579E-03
      0.375000          0.157830E-03
      0.380000          0.153693E-03
      0.385000          0.149205E-03
      0.390000          0.144431E-03
      0.395000          0.139456E-03
      0.400000          0.134377E-03
      0.405000          0.129303E-03
      0.410000          0.124337E-03
      0.415000          0.119580E-03
      0.420000          0.115115E-03
      0.425000          0.111008E-03
      0.430000          0.107304E-03
      0.435000          0.104023E-03
      0.440000          0.101165E-03
      0.445000          0.987080E-04
      0.450000          0.966138E-04
      0.455000          0.948315E-04
      0.460000          0.933020E-04
      0.465000          0.919635E-04
      0.470000          0.907553E-04
      0.475000          0.896217E-04
      0.480000          0.885154E-04
      0.485000          0.873989E-04
      0.490000          0.862454E-04
      0.495000          0.850398E-04
      0.500000          0.837771E-04
