 I_abs(s)[cm^-1]/c[mg/ml]
       0.00000          0.144575E-01
      0.500000E-02      0.143903E-01
      0.100000E-01      0.141907E-01
      0.150000E-01      0.138648E-01
      0.200000E-01      0.134222E-01
      0.250000E-01      0.128759E-01
      0.300000E-01      0.122412E-01
      0.350000E-01      0.115355E-01
      0.400000E-01      0.107770E-01
      0.450000E-01      0.998438E-02
      0.500000E-01      0.917568E-02
      0.550000E-01      0.836777E-02
      0.600000E-01      0.757583E-02
      0.650000E-01      0.681290E-02
      0.700000E-01      0.608958E-02
      0.750000E-01      0.541399E-02
      0.800000E-01      0.479171E-02
      0.850000E-01      0.422596E-02
      0.900000E-01      0.371785E-02
      0.950000E-01      0.326663E-02
      0.100000          0.287007E-02
      0.105000          0.252478E-02
      0.110000          0.222659E-02
      0.115000          0.197080E-02
      0.120000          0.175254E-02
      0.125000          0.156692E-02
      0.130000          0.140924E-02
      0.135000          0.127513E-02
      0.140000          0.116060E-02
      0.145000          0.106213E-02
      0.150000          0.976687E-03
      0.155000          0.901700E-03
      0.160000          0.835061E-03
      0.165000          0.775085E-03
      0.170000          0.720479E-03
      0.175000          0.670289E-03
      0.180000          0.623853E-03
      0.185000          0.580749E-03
      0.190000          0.540745E-03
      0.195000          0.503741E-03
      0.200000          0.469722E-03
      0.205000          0.438716E-03
      0.210000          0.410748E-03
      0.215000          0.385811E-03
      0.220000          0.363846E-03
      0.225000          0.344723E-03
      0.230000          0.328244E-03
      0.235000          0.314144E-03
      0.240000          0.302106E-03
      0.245000          0.291781E-03
      0.250000          0.282805E-03
      0.255000          0.274827E-03
      0.260000          0.267525E-03
      0.265000          0.260624E-03
      0.270000          0.253907E-03
      0.275000          0.247223E-03
      0.280000          0.240480E-03
      0.285000          0.233647E-03
      0.290000          0.226738E-03
      0.295000          0.219804E-03
      0.300000          0.212915E-03
      0.305000          0.206148E-03
      0.310000          0.199578E-03
      0.315000          0.193264E-03
      0.320000          0.187247E-03
      0.325000          0.181549E-03
      0.330000          0.176169E-03
      0.335000          0.171091E-03
      0.340000          0.166283E-03
      0.345000          0.161711E-03
      0.350000          0.157337E-03
      0.355000          0.153126E-03
      0.360000          0.149052E-03
      0.365000          0.145096E-03
      0.370000          0.141248E-03
      0.375000          0.137506E-03
      0.380000          0.133876E-03
      0.385000          0.130363E-03
      0.390000          0.126977E-03
      0.395000          0.123723E-03
      0.400000          0.120606E-03
      0.405000          0.117624E-03
      0.410000          0.114772E-03
      0.415000          0.112043E-03
      0.420000          0.109425E-03
      0.425000          0.106909E-03
      0.430000          0.104482E-03
      0.435000          0.102137E-03
      0.440000          0.998694E-04
      0.445000          0.976767E-04
      0.450000          0.955611E-04
      0.455000          0.935276E-04
      0.460000          0.915837E-04
      0.465000          0.897384E-04
      0.470000          0.880009E-04
      0.475000          0.863802E-04
      0.480000          0.848842E-04
      0.485000          0.835187E-04
      0.490000          0.822879E-04
      0.495000          0.811937E-04
      0.500000          0.802358E-04
