 I_abs(s)[cm^-1]/c[mg/ml]
       0.00000          0.149198E-01
      0.500000E-02      0.148736E-01
      0.100000E-01      0.147360E-01
      0.150000E-01      0.145095E-01
      0.200000E-01      0.141980E-01
      0.250000E-01      0.138072E-01
      0.300000E-01      0.133438E-01
      0.350000E-01      0.128158E-01
      0.400000E-01      0.122320E-01
      0.450000E-01      0.116019E-01
      0.500000E-01      0.109353E-01
      0.550000E-01      0.102424E-01
      0.600000E-01      0.953295E-02
      0.650000E-01      0.881671E-02
      0.700000E-01      0.810275E-02
      0.750000E-01      0.739948E-02
      0.800000E-01      0.671448E-02
      0.850000E-01      0.605437E-02
      0.900000E-01      0.542474E-02
      0.950000E-01      0.483011E-02
      0.100000          0.427396E-02
      0.105000          0.375869E-02
      0.110000          0.328574E-02
      0.115000          0.285562E-02
      0.120000          0.246803E-02
      0.125000          0.212194E-02
      0.130000          0.181575E-02
      0.135000          0.154735E-02
      0.140000          0.131428E-02
      0.145000          0.111380E-02
      0.150000          0.943025E-03
      0.155000          0.798998E-03
      0.160000          0.678768E-03
      0.165000          0.579456E-03
      0.170000          0.498313E-03
      0.175000          0.432751E-03
      0.180000          0.380380E-03
      0.185000          0.339022E-03
      0.190000          0.306720E-03
      0.195000          0.281743E-03
      0.200000          0.262578E-03
      0.205000          0.247927E-03
      0.210000          0.236691E-03
      0.215000          0.227954E-03
      0.220000          0.220975E-03
      0.225000          0.215162E-03
      0.230000          0.210062E-03
      0.235000          0.205342E-03
      0.240000          0.200771E-03
      0.245000          0.196209E-03
      0.250000          0.191584E-03
      0.255000          0.186885E-03
      0.260000          0.182144E-03
      0.265000          0.177425E-03
      0.270000          0.172808E-03
      0.275000          0.168388E-03
      0.280000          0.164255E-03
      0.285000          0.160492E-03
      0.290000          0.157170E-03
      0.295000          0.154338E-03
      0.300000          0.152025E-03
      0.305000          0.150236E-03
      0.310000          0.148953E-03
      0.315000          0.148135E-03
      0.320000          0.147725E-03
      0.325000          0.147647E-03
      0.330000          0.147816E-03
      0.335000          0.148139E-03
      0.340000          0.148522E-03
      0.345000          0.148872E-03
      0.350000          0.149106E-03
      0.355000          0.149148E-03
      0.360000          0.148938E-03
      0.365000          0.148430E-03
      0.370000          0.147594E-03
      0.375000          0.146419E-03
      0.380000          0.144907E-03
      0.385000          0.143077E-03
      0.390000          0.140960E-03
      0.395000          0.138599E-03
      0.400000          0.136044E-03
      0.405000          0.133349E-03
      0.410000          0.130573E-03
      0.415000          0.127773E-03
      0.420000          0.125005E-03
      0.425000          0.122318E-03
      0.430000          0.119758E-03
      0.435000          0.117360E-03
      0.440000          0.115154E-03
      0.445000          0.113160E-03
      0.450000          0.111388E-03
      0.455000          0.109842E-03
      0.460000          0.108517E-03
      0.465000          0.107401E-03
      0.470000          0.106477E-03
      0.475000          0.105723E-03
      0.480000          0.105112E-03
      0.485000          0.104616E-03
      0.490000          0.104204E-03
      0.495000          0.103847E-03
      0.500000          0.103514E-03
