 I_abs(s)[cm^-1]/c[mg/ml]
       0.00000          0.138938E-01
      0.500000E-02      0.138074E-01
      0.100000E-01      0.135512E-01
      0.150000E-01      0.131346E-01
      0.200000E-01      0.125723E-01
      0.250000E-01      0.118840E-01
      0.300000E-01      0.110932E-01
      0.350000E-01      0.102256E-01
      0.400000E-01      0.930846E-02
      0.450000E-01      0.836877E-02
      0.500000E-01      0.743226E-02
      0.550000E-01      0.652223E-02
      0.600000E-01      0.565878E-02
      0.650000E-01      0.485808E-02
      0.700000E-01      0.413214E-02
      0.750000E-01      0.348862E-02
      0.800000E-01      0.293107E-02
      0.850000E-01      0.245924E-02
      0.900000E-01      0.206965E-02
      0.950000E-01      0.175622E-02
      0.100000          0.151095E-02
      0.105000          0.132465E-02
      0.110000          0.118754E-02
      0.115000          0.108991E-02
      0.120000          0.102255E-02
      0.125000          0.977087E-03
      0.130000          0.946306E-03
      0.135000          0.924221E-03
      0.140000          0.906131E-03
      0.145000          0.888573E-03
      0.150000          0.869211E-03
      0.155000          0.846681E-03
      0.160000          0.820426E-03
      0.165000          0.790507E-03
      0.170000          0.757439E-03
      0.175000          0.722028E-03
      0.180000          0.685238E-03
      0.185000          0.648076E-03
      0.190000          0.611506E-03
      0.195000          0.576386E-03
      0.200000          0.543420E-03
      0.205000          0.513136E-03
      0.210000          0.485872E-03
      0.215000          0.461781E-03
      0.220000          0.440839E-03
      0.225000          0.422871E-03
      0.230000          0.407571E-03
      0.235000          0.394537E-03
      0.240000          0.383303E-03
      0.245000          0.373376E-03
      0.250000          0.364265E-03
      0.255000          0.355514E-03
      0.260000          0.346728E-03
      0.265000          0.337594E-03
      0.270000          0.327896E-03
      0.275000          0.317517E-03
      0.280000          0.306443E-03
      0.285000          0.294752E-03
      0.290000          0.282604E-03
      0.295000          0.270220E-03
      0.300000          0.257859E-03
      0.305000          0.245801E-03
      0.310000          0.234319E-03
      0.315000          0.223663E-03
      0.320000          0.214037E-03
      0.325000          0.205592E-03
      0.330000          0.198412E-03
      0.335000          0.192515E-03
      0.340000          0.187849E-03
      0.345000          0.184301E-03
      0.350000          0.181705E-03
      0.355000          0.179856E-03
      0.360000          0.178521E-03
      0.365000          0.177458E-03
      0.370000          0.176425E-03
      0.375000          0.175200E-03
      0.380000          0.173592E-03
      0.385000          0.171446E-03
      0.390000          0.168655E-03
      0.395000          0.165161E-03
      0.400000          0.160958E-03
      0.405000          0.156086E-03
      0.410000          0.150628E-03
      0.415000          0.144702E-03
      0.420000          0.138455E-03
      0.425000          0.132046E-03
      0.430000          0.125645E-03
      0.435000          0.119418E-03
      0.440000          0.113517E-03
      0.445000          0.108078E-03
      0.450000          0.103210E-03
      0.455000          0.989935E-04
      0.460000          0.954796E-04
      0.465000          0.926881E-04
      0.470000          0.906100E-04
      0.475000          0.892102E-04
      0.480000          0.884319E-04
      0.485000          0.882007E-04
      0.490000          0.884302E-04
      0.495000          0.890264E-04
      0.500000          0.898925E-04
