 I_abs(s)[cm^-1]/c[mg/ml]
       0.00000          0.151293E-01
      0.500000E-02      0.150510E-01
      0.100000E-01      0.148185E-01
      0.150000E-01      0.144389E-01
      0.200000E-01      0.139238E-01
      0.250000E-01      0.132883E-01
      0.300000E-01      0.125509E-01
      0.350000E-01      0.117323E-01
      0.400000E-01      0.108543E-01
      0.450000E-01      0.993945E-02
      0.500000E-01      0.900946E-02
      0.550000E-01      0.808484E-02
      0.600000E-01      0.718400E-02
      0.650000E-01      0.632276E-02
      0.700000E-01      0.551396E-02
      0.750000E-01      0.476726E-02
      0.800000E-01      0.408914E-02
      0.850000E-01      0.348303E-02
      0.900000E-01      0.294960E-02
      0.950000E-01      0.248712E-02
      0.100000          0.209195E-02
      0.105000          0.175898E-02
      0.110000          0.148213E-02
      0.115000          0.125482E-02
      0.120000          0.107033E-02
      0.125000          0.922164E-03
      0.130000          0.804259E-03
      0.135000          0.711185E-03
      0.140000          0.638211E-03
      0.145000          0.581338E-03
      0.150000          0.537260E-03
      0.155000          0.503297E-03
      0.160000          0.477299E-03
      0.165000          0.457546E-03
      0.170000          0.442648E-03
      0.175000          0.431456E-03
      0.180000          0.422998E-03
      0.185000          0.416427E-03
      0.190000          0.410997E-03
      0.195000          0.406051E-03
      0.200000          0.401022E-03
      0.205000          0.395446E-03
      0.210000          0.388971E-03
      0.215000          0.381372E-03
      0.220000          0.372549E-03
      0.225000          0.362528E-03
      0.230000          0.351446E-03
      0.235000          0.339532E-03
      0.240000          0.327079E-03
      0.245000          0.314419E-03
      0.250000          0.301888E-03
      0.255000          0.289802E-03
      0.260000          0.278431E-03
      0.265000          0.267985E-03
      0.270000          0.258605E-03
      0.275000          0.250360E-03
      0.280000          0.243251E-03
      0.285000          0.237226E-03
      0.290000          0.232186E-03
      0.295000          0.228008E-03
      0.300000          0.224554E-03
      0.305000          0.221688E-03
      0.310000          0.219283E-03
      0.315000          0.217227E-03
      0.320000          0.215429E-03
      0.325000          0.213814E-03
      0.330000          0.212323E-03
      0.335000          0.210905E-03
      0.340000          0.209515E-03
      0.345000          0.208106E-03
      0.350000          0.206625E-03
      0.355000          0.205016E-03
      0.360000          0.203215E-03
      0.365000          0.201158E-03
      0.370000          0.198781E-03
      0.375000          0.196025E-03
      0.380000          0.192846E-03
      0.385000          0.189218E-03
      0.390000          0.185133E-03
      0.395000          0.180609E-03
      0.400000          0.175689E-03
      0.405000          0.170435E-03
      0.410000          0.164932E-03
      0.415000          0.159273E-03
      0.420000          0.153560E-03
      0.425000          0.147897E-03
      0.430000          0.142377E-03
      0.435000          0.137084E-03
      0.440000          0.132084E-03
      0.445000          0.127423E-03
      0.450000          0.123128E-03
      0.455000          0.119203E-03
      0.460000          0.115638E-03
      0.465000          0.112408E-03
      0.470000          0.109477E-03
      0.475000          0.106807E-03
      0.480000          0.104358E-03
      0.485000          0.102094E-03
      0.490000          0.999879E-04
      0.495000          0.980187E-04
      0.500000          0.961766E-04
