 I_abs(s)[cm^-1]/c[mg/ml]
       0.00000          0.147420E-01
      0.500000E-02      0.146736E-01
      0.100000E-01      0.144703E-01
      0.150000E-01      0.141386E-01
      0.200000E-01      0.136884E-01
      0.250000E-01      0.131331E-01
      0.300000E-01      0.124889E-01
      0.350000E-01      0.117735E-01
      0.400000E-01      0.110060E-01
      0.450000E-01      0.102054E-01
      0.500000E-01      0.939026E-02
      0.550000E-01      0.857767E-02
      0.600000E-01      0.778287E-02
      0.650000E-01      0.701871E-02
      0.700000E-01      0.629540E-02
      0.750000E-01      0.562040E-02
      0.800000E-01      0.499848E-02
      0.850000E-01      0.443192E-02
      0.900000E-01      0.392081E-02
      0.950000E-01      0.346343E-02
      0.100000          0.305671E-02
      0.105000          0.269659E-02
      0.110000          0.237854E-02
      0.115000          0.209782E-02
      0.120000          0.184988E-02
      0.125000          0.163050E-02
      0.130000          0.143600E-02
      0.135000          0.126328E-02
      0.140000          0.110983E-02
      0.145000          0.973682E-03
      0.150000          0.853328E-03
      0.155000          0.747599E-03
      0.160000          0.655562E-03
      0.165000          0.576405E-03
      0.170000          0.509348E-03
      0.175000          0.453575E-03
      0.180000          0.408187E-03
      0.185000          0.372189E-03
      0.190000          0.344495E-03
      0.195000          0.323946E-03
      0.200000          0.309354E-03
      0.205000          0.299533E-03
      0.210000          0.293350E-03
      0.215000          0.289755E-03
      0.220000          0.287814E-03
      0.225000          0.286730E-03
      0.230000          0.285854E-03
      0.235000          0.284681E-03
      0.240000          0.282851E-03
      0.245000          0.280129E-03
      0.250000          0.276395E-03
      0.255000          0.271621E-03
      0.260000          0.265857E-03
      0.265000          0.259210E-03
      0.270000          0.251829E-03
      0.275000          0.243895E-03
      0.280000          0.235604E-03
      0.285000          0.227160E-03
      0.290000          0.218764E-03
      0.295000          0.210605E-03
      0.300000          0.202854E-03
      0.305000          0.195654E-03
      0.310000          0.189116E-03
      0.315000          0.183313E-03
      0.320000          0.178276E-03
      0.325000          0.173994E-03
      0.330000          0.170415E-03
      0.335000          0.167452E-03
      0.340000          0.164985E-03
      0.345000          0.162875E-03
      0.350000          0.160974E-03
      0.355000          0.159131E-03
      0.360000          0.157209E-03
      0.365000          0.155092E-03
      0.370000          0.152691E-03
      0.375000          0.149955E-03
      0.380000          0.146866E-03
      0.385000          0.143446E-03
      0.390000          0.139746E-03
      0.395000          0.135847E-03
      0.400000          0.131845E-03
      0.405000          0.127849E-03
      0.410000          0.123968E-03
      0.415000          0.120302E-03
      0.420000          0.116937E-03
      0.425000          0.113938E-03
      0.430000          0.111348E-03
      0.435000          0.109184E-03
      0.440000          0.107440E-03
      0.445000          0.106087E-03
      0.450000          0.105082E-03
      0.455000          0.104370E-03
      0.460000          0.103889E-03
      0.465000          0.103576E-03
      0.470000          0.103371E-03
      0.475000          0.103222E-03
      0.480000          0.103084E-03
      0.485000          0.102924E-03
      0.490000          0.102717E-03
      0.495000          0.102446E-03
      0.500000          0.102103E-03
