 I_abs(s)[cm^-1]/c[mg/ml]
       0.00000          0.144238E-01
      0.500000E-02      0.143591E-01
      0.100000E-01      0.141667E-01
      0.150000E-01      0.138514E-01
      0.200000E-01      0.134213E-01
      0.250000E-01      0.128869E-01
      0.300000E-01      0.122613E-01
      0.350000E-01      0.115593E-01
      0.400000E-01      0.107973E-01
      0.450000E-01      0.999210E-02
      0.500000E-01      0.916089E-02
      0.550000E-01      0.832039E-02
      0.600000E-01      0.748641E-02
      0.650000E-01      0.667340E-02
      0.700000E-01      0.589404E-02
      0.750000E-01      0.515899E-02
      0.800000E-01      0.447670E-02
      0.850000E-01      0.385329E-02
      0.900000E-01      0.329261E-02
      0.950000E-01      0.279631E-02
      0.100000          0.236404E-02
      0.105000          0.199369E-02
      0.110000          0.168168E-02
      0.115000          0.142329E-02
      0.120000          0.121298E-02
      0.125000          0.104472E-02
      0.130000          0.912297E-03
      0.135000          0.809596E-03
      0.140000          0.730812E-03
      0.145000          0.670643E-03
      0.150000          0.624419E-03
      0.155000          0.588177E-03
      0.160000          0.558694E-03
      0.165000          0.533477E-03
      0.170000          0.510709E-03
      0.175000          0.489180E-03
      0.180000          0.468192E-03
      0.185000          0.447449E-03
      0.190000          0.426958E-03
      0.195000          0.406922E-03
      0.200000          0.387649E-03
      0.205000          0.369476E-03
      0.210000          0.352707E-03
      0.215000          0.337572E-03
      0.220000          0.324196E-03
      0.225000          0.312598E-03
      0.230000          0.302688E-03
      0.235000          0.294285E-03
      0.240000          0.287137E-03
      0.245000          0.280946E-03
      0.250000          0.275401E-03
      0.255000          0.270194E-03
      0.260000          0.265050E-03
      0.265000          0.259740E-03
      0.270000          0.254093E-03
      0.275000          0.248001E-03
      0.280000          0.241420E-03
      0.285000          0.234363E-03
      0.290000          0.226895E-03
      0.295000          0.219118E-03
      0.300000          0.211159E-03
      0.305000          0.203160E-03
      0.310000          0.195264E-03
      0.315000          0.187604E-03
      0.320000          0.180299E-03
      0.325000          0.173443E-03
      0.330000          0.167107E-03
      0.335000          0.161336E-03
      0.340000          0.156148E-03
      0.345000          0.151543E-03
      0.350000          0.147503E-03
      0.355000          0.143994E-03
      0.360000          0.140976E-03
      0.365000          0.138405E-03
      0.370000          0.136232E-03
      0.375000          0.134415E-03
      0.380000          0.132911E-03
      0.385000          0.131684E-03
      0.390000          0.130699E-03
      0.395000          0.129927E-03
      0.400000          0.129341E-03
      0.405000          0.128913E-03
      0.410000          0.128618E-03
      0.415000          0.128428E-03
      0.420000          0.128311E-03
      0.425000          0.128236E-03
      0.430000          0.128169E-03
      0.435000          0.128071E-03
      0.440000          0.127906E-03
      0.445000          0.127636E-03
      0.450000          0.127227E-03
      0.455000          0.126647E-03
      0.460000          0.125868E-03
      0.465000          0.124870E-03
      0.470000          0.123640E-03
      0.475000          0.122172E-03
      0.480000          0.120468E-03
      0.485000          0.118539E-03
      0.490000          0.116403E-03
      0.495000          0.114085E-03
      0.500000          0.111615E-03
