 I_abs(s)[cm^-1]/c[mg/ml]
       0.00000          0.144317E-01
      0.500000E-02      0.143548E-01
      0.100000E-01      0.141265E-01
      0.150000E-01      0.137537E-01
      0.200000E-01      0.132478E-01
      0.250000E-01      0.126238E-01
      0.300000E-01      0.119000E-01
      0.350000E-01      0.110969E-01
      0.400000E-01      0.102363E-01
      0.450000E-01      0.934061E-02
      0.500000E-01      0.843168E-02
      0.550000E-01      0.753019E-02
      0.600000E-01      0.665481E-02
      0.650000E-01      0.582165E-02
      0.700000E-01      0.504382E-02
      0.750000E-01      0.433120E-02
      0.800000E-01      0.369038E-02
      0.850000E-01      0.312475E-02
      0.900000E-01      0.263473E-02
      0.950000E-01      0.221815E-02
      0.100000          0.187070E-02
      0.105000          0.158640E-02
      0.110000          0.135816E-02
      0.115000          0.117828E-02
      0.120000          0.103889E-02
      0.125000          0.932378E-03
      0.130000          0.851686E-03
      0.135000          0.790571E-03
      0.140000          0.743736E-03
      0.145000          0.706891E-03
      0.150000          0.676741E-03
      0.155000          0.650913E-03
      0.160000          0.627828E-03
      0.165000          0.606561E-03
      0.170000          0.586672E-03
      0.175000          0.568051E-03
      0.180000          0.550775E-03
      0.185000          0.534981E-03
      0.190000          0.520780E-03
      0.195000          0.508192E-03
      0.200000          0.497116E-03
      0.205000          0.487326E-03
      0.210000          0.478485E-03
      0.215000          0.470182E-03
      0.220000          0.461971E-03
      0.225000          0.453412E-03
      0.230000          0.444118E-03
      0.235000          0.433784E-03
      0.240000          0.422211E-03
      0.245000          0.409322E-03
      0.250000          0.395156E-03
      0.255000          0.379866E-03
      0.260000          0.363692E-03
      0.265000          0.346945E-03
      0.270000          0.329973E-03
      0.275000          0.313135E-03
      0.280000          0.296777E-03
      0.285000          0.281206E-03
      0.290000          0.266675E-03
      0.295000          0.253373E-03
      0.300000          0.241417E-03
      0.305000          0.230855E-03
      0.310000          0.221669E-03
      0.315000          0.213785E-03
      0.320000          0.207085E-03
      0.325000          0.201418E-03
      0.330000          0.196615E-03
      0.335000          0.192499E-03
      0.340000          0.188897E-03
      0.345000          0.185646E-03
      0.350000          0.182604E-03
      0.355000          0.179649E-03
      0.360000          0.176687E-03
      0.365000          0.173646E-03
      0.370000          0.170479E-03
      0.375000          0.167163E-03
      0.380000          0.163693E-03
      0.385000          0.160078E-03
      0.390000          0.156343E-03
      0.395000          0.152520E-03
      0.400000          0.148645E-03
      0.405000          0.144760E-03
      0.410000          0.140906E-03
      0.415000          0.137119E-03
      0.420000          0.133436E-03
      0.425000          0.129886E-03
      0.430000          0.126492E-03
      0.435000          0.123271E-03
      0.440000          0.120233E-03
      0.445000          0.117385E-03
      0.450000          0.114725E-03
      0.455000          0.112249E-03
      0.460000          0.109949E-03
      0.465000          0.107815E-03
      0.470000          0.105837E-03
      0.475000          0.104003E-03
      0.480000          0.102306E-03
      0.485000          0.100738E-03
      0.490000          0.992935E-04
      0.495000          0.979692E-04
      0.500000          0.967640E-04
