 I_abs(s)[cm^-1]/c[mg/ml]
       0.00000          0.147500E-01
      0.500000E-02      0.146901E-01
      0.100000E-01      0.145117E-01
      0.150000E-01      0.142195E-01
      0.200000E-01      0.138205E-01
      0.250000E-01      0.133245E-01
      0.300000E-01      0.127432E-01
      0.350000E-01      0.120902E-01
      0.400000E-01      0.113800E-01
      0.450000E-01      0.106278E-01
      0.500000E-01      0.984876E-02
      0.550000E-01      0.905784E-02
      0.600000E-01      0.826896E-02
      0.650000E-01      0.749481E-02
      0.700000E-01      0.674650E-02
      0.750000E-01      0.603336E-02
      0.800000E-01      0.536279E-02
      0.850000E-01      0.474025E-02
      0.900000E-01      0.416928E-02
      0.950000E-01      0.365165E-02
      0.100000          0.318750E-02
      0.105000          0.277562E-02
      0.110000          0.241366E-02
      0.115000          0.209840E-02
      0.120000          0.182601E-02
      0.125000          0.159231E-02
      0.130000          0.139297E-02
      0.135000          0.122369E-02
      0.140000          0.108037E-02
      0.145000          0.959187E-03
      0.150000          0.856707E-03
      0.155000          0.769885E-03
      0.160000          0.696090E-03
      0.165000          0.633094E-03
      0.170000          0.579037E-03
      0.175000          0.532385E-03
      0.180000          0.491888E-03
      0.185000          0.456527E-03
      0.190000          0.425477E-03
      0.195000          0.398061E-03
      0.200000          0.373723E-03
      0.205000          0.352000E-03
      0.210000          0.332508E-03
      0.215000          0.314920E-03
      0.220000          0.298968E-03
      0.225000          0.284426E-03
      0.230000          0.271115E-03
      0.235000          0.258892E-03
      0.240000          0.247651E-03
      0.245000          0.237314E-03
      0.250000          0.227826E-03
      0.255000          0.219150E-03
      0.260000          0.211260E-03
      0.265000          0.204134E-03
      0.270000          0.197748E-03
      0.275000          0.192074E-03
      0.280000          0.187074E-03
      0.285000          0.182703E-03
      0.290000          0.178903E-03
      0.295000          0.175612E-03
      0.300000          0.172764E-03
      0.305000          0.170290E-03
      0.310000          0.168125E-03
      0.315000          0.166213E-03
      0.320000          0.164504E-03
      0.325000          0.162960E-03
      0.330000          0.161556E-03
      0.335000          0.160277E-03
      0.340000          0.159118E-03
      0.345000          0.158080E-03
      0.350000          0.157168E-03
      0.355000          0.156389E-03
      0.360000          0.155744E-03
      0.365000          0.155231E-03
      0.370000          0.154836E-03
      0.375000          0.154541E-03
      0.380000          0.154312E-03
      0.385000          0.154111E-03
      0.390000          0.153889E-03
      0.395000          0.153593E-03
      0.400000          0.153167E-03
      0.405000          0.152556E-03
      0.410000          0.151710E-03
      0.415000          0.150585E-03
      0.420000          0.149147E-03
      0.425000          0.147373E-03
      0.430000          0.145253E-03
      0.435000          0.142792E-03
      0.440000          0.140007E-03
      0.445000          0.136927E-03
      0.450000          0.133591E-03
      0.455000          0.130048E-03
      0.460000          0.126354E-03
      0.465000          0.122567E-03
      0.470000          0.118745E-03
      0.475000          0.114949E-03
      0.480000          0.111233E-03
      0.485000          0.107648E-03
      0.490000          0.104237E-03
      0.495000          0.101037E-03
      0.500000          0.980749E-04
