 I_abs(s)[cm^-1]/c[mg/ml]
       0.00000          0.135667E-01
      0.500000E-02      0.134640E-01
      0.100000E-01      0.131613E-01
      0.150000E-01      0.126741E-01
      0.200000E-01      0.120268E-01
      0.250000E-01      0.112505E-01
      0.300000E-01      0.103812E-01
      0.350000E-01      0.945605E-02
      0.400000E-01      0.851157E-02
      0.450000E-01      0.758079E-02
      0.500000E-01      0.669153E-02
      0.550000E-01      0.586518E-02
      0.600000E-01      0.511611E-02
      0.650000E-01      0.445185E-02
      0.700000E-01      0.387382E-02
      0.750000E-01      0.337841E-02
      0.800000E-01      0.295841E-02
      0.850000E-01      0.260443E-02
      0.900000E-01      0.230622E-02
      0.950000E-01      0.205382E-02
      0.100000          0.183832E-02
      0.105000          0.165234E-02
      0.110000          0.149020E-02
      0.115000          0.134778E-02
      0.120000          0.122231E-02
      0.125000          0.111195E-02
      0.130000          0.101543E-02
      0.135000          0.931763E-03
      0.140000          0.859960E-03
      0.145000          0.798948E-03
      0.150000          0.747514E-03
      0.155000          0.704355E-03
      0.160000          0.668153E-03
      0.165000          0.637669E-03
      0.170000          0.611812E-03
      0.175000          0.589679E-03
      0.180000          0.570558E-03
      0.185000          0.553890E-03
      0.190000          0.539223E-03
      0.195000          0.526150E-03
      0.200000          0.514268E-03
      0.205000          0.503149E-03
      0.210000          0.492341E-03
      0.215000          0.481396E-03
      0.220000          0.469913E-03
      0.225000          0.457582E-03
      0.230000          0.444231E-03
      0.235000          0.429850E-03
      0.240000          0.414599E-03
      0.245000          0.398783E-03
      0.250000          0.382814E-03
      0.255000          0.367156E-03
      0.260000          0.352264E-03
      0.265000          0.338525E-03
      0.270000          0.326215E-03
      0.275000          0.315476E-03
      0.280000          0.306304E-03
      0.285000          0.298569E-03
      0.290000          0.292036E-03
      0.295000          0.286408E-03
      0.300000          0.281364E-03
      0.305000          0.276593E-03
      0.310000          0.271824E-03
      0.315000          0.266846E-03
      0.320000          0.261515E-03
      0.325000          0.255753E-03
      0.330000          0.249541E-03
      0.335000          0.242908E-03
      0.340000          0.235919E-03
      0.345000          0.228666E-03
      0.350000          0.221256E-03
      0.355000          0.213811E-03
      0.360000          0.206456E-03
      0.365000          0.199320E-03
      0.370000          0.192531E-03
      0.375000          0.186206E-03
      0.380000          0.180453E-03
      0.385000          0.175353E-03
      0.390000          0.170964E-03
      0.395000          0.167307E-03
      0.400000          0.164367E-03
      0.405000          0.162094E-03
      0.410000          0.160405E-03
      0.415000          0.159192E-03
      0.420000          0.158330E-03
      0.425000          0.157692E-03
      0.430000          0.157152E-03
      0.435000          0.156600E-03
      0.440000          0.155943E-03
      0.445000          0.155111E-03
      0.450000          0.154058E-03
      0.455000          0.152756E-03
      0.460000          0.151193E-03
      0.465000          0.149369E-03
      0.470000          0.147292E-03
      0.475000          0.144971E-03
      0.480000          0.142418E-03
      0.485000          0.139646E-03
      0.490000          0.136671E-03
      0.495000          0.133512E-03
      0.500000          0.130194E-03
