 I_abs(s)[cm^-1]/c[mg/ml]
       0.00000          0.148301E-01
      0.500000E-02      0.147489E-01
      0.100000E-01      0.145079E-01
      0.150000E-01      0.141147E-01
      0.200000E-01      0.135815E-01
      0.250000E-01      0.129247E-01
      0.300000E-01      0.121639E-01
      0.350000E-01      0.113210E-01
      0.400000E-01      0.104195E-01
      0.450000E-01      0.948311E-02
      0.500000E-01      0.853510E-02
      0.550000E-01      0.759718E-02
      0.600000E-01      0.668882E-02
      0.650000E-01      0.582667E-02
      0.700000E-01      0.502413E-02
      0.750000E-01      0.429114E-02
      0.800000E-01      0.363415E-02
      0.850000E-01      0.305625E-02
      0.900000E-01      0.255750E-02
      0.950000E-01      0.213533E-02
      0.100000          0.178500E-02
      0.105000          0.150016E-02
      0.110000          0.127338E-02
      0.115000          0.109666E-02
      0.120000          0.961851E-03
      0.125000          0.861106E-03
      0.130000          0.787129E-03
      0.135000          0.733407E-03
      0.140000          0.694341E-03
      0.145000          0.665294E-03
      0.150000          0.642586E-03
      0.155000          0.623422E-03
      0.160000          0.605801E-03
      0.165000          0.588389E-03
      0.170000          0.570397E-03
      0.175000          0.551450E-03
      0.180000          0.531477E-03
      0.185000          0.510609E-03
      0.190000          0.489103E-03
      0.195000          0.467278E-03
      0.200000          0.445472E-03
      0.205000          0.424016E-03
      0.210000          0.403212E-03
      0.215000          0.383330E-03
      0.220000          0.364598E-03
      0.225000          0.347206E-03
      0.230000          0.331302E-03
      0.235000          0.316994E-03
      0.240000          0.304346E-03
      0.245000          0.293383E-03
      0.250000          0.284085E-03
      0.255000          0.276386E-03
      0.260000          0.270182E-03
      0.265000          0.265328E-03
      0.270000          0.261646E-03
      0.275000          0.258930E-03
      0.280000          0.256956E-03
      0.285000          0.255493E-03
      0.290000          0.254308E-03
      0.295000          0.253182E-03
      0.300000          0.251913E-03
      0.305000          0.250328E-03
      0.310000          0.248284E-03
      0.315000          0.245676E-03
      0.320000          0.242438E-03
      0.325000          0.238540E-03
      0.330000          0.233988E-03
      0.335000          0.228820E-03
      0.340000          0.223102E-03
      0.345000          0.216924E-03
      0.350000          0.210389E-03
      0.355000          0.203614E-03
      0.360000          0.196718E-03
      0.365000          0.189822E-03
      0.370000          0.183041E-03
      0.375000          0.176478E-03
      0.380000          0.170227E-03
      0.385000          0.164365E-03
      0.390000          0.158951E-03
      0.395000          0.154027E-03
      0.400000          0.149619E-03
      0.405000          0.145735E-03
      0.410000          0.142366E-03
      0.415000          0.139491E-03
      0.420000          0.137078E-03
      0.425000          0.135084E-03
      0.430000          0.133460E-03
      0.435000          0.132152E-03
      0.440000          0.131104E-03
      0.445000          0.130257E-03
      0.450000          0.129556E-03
      0.455000          0.128945E-03
      0.460000          0.128372E-03
      0.465000          0.127788E-03
      0.470000          0.127149E-03
      0.475000          0.126416E-03
      0.480000          0.125555E-03
      0.485000          0.124540E-03
      0.490000          0.123349E-03
      0.495000          0.121971E-03
      0.500000          0.120400E-03
