 I_abs(s)[cm^-1]/c[mg/ml]
       0.00000          0.141718E-01
      0.500000E-02      0.141063E-01
      0.100000E-01      0.139115E-01
      0.150000E-01      0.135923E-01
      0.200000E-01      0.131565E-01
      0.250000E-01      0.126146E-01
      0.300000E-01      0.119798E-01
      0.350000E-01      0.112668E-01
      0.400000E-01      0.104920E-01
      0.450000E-01      0.967255E-02
      0.500000E-01      0.882582E-02
      0.550000E-01      0.796901E-02
      0.600000E-01      0.711851E-02
      0.650000E-01      0.628947E-02
      0.700000E-01      0.549539E-02
      0.750000E-01      0.474779E-02
      0.800000E-01      0.405603E-02
      0.850000E-01      0.342716E-02
      0.900000E-01      0.286585E-02
      0.950000E-01      0.237449E-02
      0.100000          0.195330E-02
      0.105000          0.160055E-02
      0.110000          0.131277E-02
      0.115000          0.108513E-02
      0.120000          0.911687E-03
      0.125000          0.785767E-03
      0.130000          0.700260E-03
      0.135000          0.647938E-03
      0.140000          0.621730E-03
      0.145000          0.614951E-03
      0.150000          0.621499E-03
      0.155000          0.635992E-03
      0.160000          0.653864E-03
      0.165000          0.671409E-03
      0.170000          0.685786E-03
      0.175000          0.694988E-03
      0.180000          0.697771E-03
      0.185000          0.693572E-03
      0.190000          0.682402E-03
      0.195000          0.664732E-03
      0.200000          0.641381E-03
      0.205000          0.613403E-03
      0.210000          0.581980E-03
      0.215000          0.548340E-03
      0.220000          0.513670E-03
      0.225000          0.479063E-03
      0.230000          0.445468E-03
      0.235000          0.413666E-03
      0.240000          0.384251E-03
      0.245000          0.357631E-03
      0.250000          0.334033E-03
      0.255000          0.313523E-03
      0.260000          0.296024E-03
      0.265000          0.281346E-03
      0.270000          0.269211E-03
      0.275000          0.259279E-03
      0.280000          0.251178E-03
      0.285000          0.244523E-03
      0.290000          0.238940E-03
      0.295000          0.234078E-03
      0.300000          0.229627E-03
      0.305000          0.225322E-03
      0.310000          0.220954E-03
      0.315000          0.216366E-03
      0.320000          0.211454E-03
      0.325000          0.206168E-03
      0.330000          0.200501E-03
      0.335000          0.194485E-03
      0.340000          0.188186E-03
      0.345000          0.181688E-03
      0.350000          0.175096E-03
      0.355000          0.168519E-03
      0.360000          0.162066E-03
      0.365000          0.155841E-03
      0.370000          0.149934E-03
      0.375000          0.144421E-03
      0.380000          0.139357E-03
      0.385000          0.134779E-03
      0.390000          0.130702E-03
      0.395000          0.127119E-03
      0.400000          0.124008E-03
      0.405000          0.121331E-03
      0.410000          0.119038E-03
      0.415000          0.117070E-03
      0.420000          0.115366E-03
      0.425000          0.113864E-03
      0.430000          0.112506E-03
      0.435000          0.111240E-03
      0.440000          0.110021E-03
      0.445000          0.108819E-03
      0.450000          0.107611E-03
      0.455000          0.106387E-03
      0.460000          0.105147E-03
      0.465000          0.103899E-03
      0.470000          0.102661E-03
      0.475000          0.101453E-03
      0.480000          0.100298E-03
      0.485000          0.992199E-04
      0.490000          0.982400E-04
      0.495000          0.973756E-04
      0.500000          0.966385E-04
