 I_abs(s)[cm^-1]/c[mg/ml]
       0.00000          0.132995E-01
      0.500000E-02      0.131982E-01
      0.100000E-01      0.128996E-01
      0.150000E-01      0.124198E-01
      0.200000E-01      0.117836E-01
      0.250000E-01      0.110231E-01
      0.300000E-01      0.101747E-01
      0.350000E-01      0.927643E-02
      0.400000E-01      0.836516E-02
      0.450000E-01      0.747400E-02
      0.500000E-01      0.663045E-02
      0.550000E-01      0.585504E-02
      0.600000E-01      0.516081E-02
      0.650000E-01      0.455353E-02
      0.700000E-01      0.403244E-02
      0.750000E-01      0.359158E-02
      0.800000E-01      0.322136E-02
      0.850000E-01      0.291017E-02
      0.900000E-01      0.264593E-02
      0.950000E-01      0.241740E-02
      0.100000          0.221505E-02
      0.105000          0.203162E-02
      0.110000          0.186224E-02
      0.115000          0.170422E-02
      0.120000          0.155666E-02
      0.125000          0.141983E-02
      0.130000          0.129461E-02
      0.135000          0.118192E-02
      0.140000          0.108235E-02
      0.145000          0.995857E-03
      0.150000          0.921734E-03
      0.155000          0.858643E-03
      0.160000          0.804798E-03
      0.165000          0.758198E-03
      0.170000          0.716871E-03
      0.175000          0.679079E-03
      0.180000          0.643474E-03
      0.185000          0.609169E-03
      0.190000          0.575732E-03
      0.195000          0.543125E-03
      0.200000          0.511584E-03
      0.205000          0.481496E-03
      0.210000          0.453272E-03
      0.215000          0.427242E-03
      0.220000          0.403589E-03
      0.225000          0.382323E-03
      0.230000          0.363291E-03
      0.235000          0.346213E-03
      0.240000          0.330739E-03
      0.245000          0.316506E-03
      0.250000          0.303193E-03
      0.255000          0.290558E-03
      0.260000          0.278456E-03
      0.265000          0.266839E-03
      0.270000          0.255738E-03
      0.275000          0.245240E-03
      0.280000          0.235453E-03
      0.285000          0.226477E-03
      0.290000          0.218385E-03
      0.295000          0.211203E-03
      0.300000          0.204914E-03
      0.305000          0.199456E-03
      0.310000          0.194737E-03
      0.315000          0.190648E-03
      0.320000          0.187075E-03
      0.325000          0.183910E-03
      0.330000          0.181055E-03
      0.335000          0.178422E-03
      0.340000          0.175935E-03
      0.345000          0.173519E-03
      0.350000          0.171099E-03
      0.355000          0.168601E-03
      0.360000          0.165946E-03
      0.365000          0.163062E-03
      0.370000          0.159890E-03
      0.375000          0.156396E-03
      0.380000          0.152575E-03
      0.385000          0.148468E-03
      0.390000          0.144155E-03
      0.395000          0.139759E-03
      0.400000          0.135432E-03
      0.405000          0.131343E-03
      0.410000          0.127657E-03
      0.415000          0.124517E-03
      0.420000          0.122026E-03
      0.425000          0.120233E-03
      0.430000          0.119123E-03
      0.435000          0.118621E-03
      0.440000          0.118599E-03
      0.445000          0.118889E-03
      0.450000          0.119308E-03
      0.455000          0.119670E-03
      0.460000          0.119817E-03
      0.465000          0.119630E-03
      0.470000          0.119039E-03
      0.475000          0.118031E-03
      0.480000          0.116642E-03
      0.485000          0.114951E-03
      0.490000          0.113060E-03
      0.495000          0.111081E-03
      0.500000          0.109116E-03
