 I_abs(s)[cm^-1]/c[mg/ml]
       0.00000          0.136358E-01
      0.500000E-02      0.135322E-01
      0.100000E-01      0.132261E-01
      0.150000E-01      0.127312E-01
      0.200000E-01      0.120698E-01
      0.250000E-01      0.112704E-01
      0.300000E-01      0.103666E-01
      0.350000E-01      0.939453E-02
      0.400000E-01      0.839065E-02
      0.450000E-01      0.738968E-02
      0.500000E-01      0.642272E-02
      0.550000E-01      0.551576E-02
      0.600000E-01      0.468870E-02
      0.650000E-01      0.395484E-02
      0.700000E-01      0.332097E-02
      0.750000E-01      0.278786E-02
      0.800000E-01      0.235111E-02
      0.850000E-01      0.200234E-02
      0.900000E-01      0.173040E-02
      0.950000E-01      0.152268E-02
      0.100000          0.136626E-02
      0.105000          0.124893E-02
      0.110000          0.115986E-02
      0.115000          0.109014E-02
      0.120000          0.103291E-02
      0.125000          0.983359E-03
      0.130000          0.938470E-03
      0.135000          0.896677E-03
      0.140000          0.857446E-03
      0.145000          0.820861E-03
      0.150000          0.787256E-03
      0.155000          0.756930E-03
      0.160000          0.729962E-03
      0.165000          0.706130E-03
      0.170000          0.684913E-03
      0.175000          0.665570E-03
      0.180000          0.647253E-03
      0.185000          0.629135E-03
      0.190000          0.610526E-03
      0.195000          0.590962E-03
      0.200000          0.570247E-03
      0.205000          0.548456E-03
      0.210000          0.525895E-03
      0.215000          0.503036E-03
      0.220000          0.480430E-03
      0.225000          0.458624E-03
      0.230000          0.438081E-03
      0.235000          0.419132E-03
      0.240000          0.401939E-03
      0.245000          0.386501E-03
      0.250000          0.372667E-03
      0.255000          0.360184E-03
      0.260000          0.348739E-03
      0.265000          0.338015E-03
      0.270000          0.327731E-03
      0.275000          0.317679E-03
      0.280000          0.307740E-03
      0.285000          0.297884E-03
      0.290000          0.288161E-03
      0.295000          0.278675E-03
      0.300000          0.269561E-03
      0.305000          0.260954E-03
      0.310000          0.252964E-03
      0.315000          0.245659E-03
      0.320000          0.239058E-03
      0.325000          0.233131E-03
      0.330000          0.227805E-03
      0.335000          0.222984E-03
      0.340000          0.218558E-03
      0.345000          0.214425E-03
      0.350000          0.210503E-03
      0.355000          0.206735E-03
      0.360000          0.203095E-03
      0.365000          0.199584E-03
      0.370000          0.196220E-03
      0.375000          0.193031E-03
      0.380000          0.190040E-03
      0.385000          0.187255E-03
      0.390000          0.184665E-03
      0.395000          0.182234E-03
      0.400000          0.179902E-03
      0.405000          0.177591E-03
      0.410000          0.175217E-03
      0.415000          0.172697E-03
      0.420000          0.169961E-03
      0.425000          0.166962E-03
      0.430000          0.163685E-03
      0.435000          0.160147E-03
      0.440000          0.156396E-03
      0.445000          0.152507E-03
      0.450000          0.148575E-03
      0.455000          0.144701E-03
      0.460000          0.140982E-03
      0.465000          0.137502E-03
      0.470000          0.134321E-03
      0.475000          0.131469E-03
      0.480000          0.128948E-03
      0.485000          0.126728E-03
      0.490000          0.124757E-03
      0.495000          0.122963E-03
      0.500000          0.121267E-03
