 I_abs(s)[cm^-1]/c[mg/ml]
       0.00000          0.144793E-01
      0.500000E-02      0.143915E-01
      0.100000E-01      0.141315E-01
      0.150000E-01      0.137088E-01
      0.200000E-01      0.131391E-01
      0.250000E-01      0.124426E-01
      0.300000E-01      0.116436E-01
      0.350000E-01      0.107686E-01
      0.400000E-01      0.984538E-02
      0.450000E-01      0.890110E-02
      0.500000E-01      0.796142E-02
      0.550000E-01      0.704920E-02
      0.600000E-01      0.618369E-02
      0.650000E-01      0.537994E-02
      0.700000E-01      0.464856E-02
      0.750000E-01      0.399577E-02
      0.800000E-01      0.342365E-02
      0.850000E-01      0.293070E-02
      0.900000E-01      0.251247E-02
      0.950000E-01      0.216237E-02
      0.100000          0.187241E-02
      0.105000          0.163396E-02
      0.110000          0.143840E-02
      0.115000          0.127766E-02
      0.120000          0.114459E-02
      0.125000          0.103319E-02
      0.130000          0.938720E-03
      0.135000          0.857615E-03
      0.140000          0.787384E-03
      0.145000          0.726386E-03
      0.150000          0.673607E-03
      0.155000          0.628415E-03
      0.160000          0.590356E-03
      0.165000          0.558980E-03
      0.170000          0.533729E-03
      0.175000          0.513879E-03
      0.180000          0.498531E-03
      0.185000          0.486651E-03
      0.190000          0.477135E-03
      0.195000          0.468892E-03
      0.200000          0.460928E-03
      0.205000          0.452420E-03
      0.210000          0.442766E-03
      0.215000          0.431619E-03
      0.220000          0.418885E-03
      0.225000          0.404699E-03
      0.230000          0.389381E-03
      0.235000          0.373381E-03
      0.240000          0.357214E-03
      0.245000          0.341396E-03
      0.250000          0.326389E-03
      0.255000          0.312560E-03
      0.260000          0.300154E-03
      0.265000          0.289280E-03
      0.270000          0.279918E-03
      0.275000          0.271939E-03
      0.280000          0.265126E-03
      0.285000          0.259211E-03
      0.290000          0.253908E-03
      0.295000          0.248944E-03
      0.300000          0.244080E-03
      0.305000          0.239137E-03
      0.310000          0.233999E-03
      0.315000          0.228615E-03
      0.320000          0.222997E-03
      0.325000          0.217206E-03
      0.330000          0.211334E-03
      0.335000          0.205492E-03
      0.340000          0.199793E-03
      0.345000          0.194334E-03
      0.350000          0.189193E-03
      0.355000          0.184415E-03
      0.360000          0.180017E-03
      0.365000          0.175984E-03
      0.370000          0.172277E-03
      0.375000          0.168842E-03
      0.380000          0.165613E-03
      0.385000          0.162526E-03
      0.390000          0.159520E-03
      0.395000          0.156549E-03
      0.400000          0.153582E-03
      0.405000          0.150604E-03
      0.410000          0.147616E-03
      0.415000          0.144632E-03
      0.420000          0.141675E-03
      0.425000          0.138776E-03
      0.430000          0.135961E-03
      0.435000          0.133255E-03
      0.440000          0.130676E-03
      0.445000          0.128231E-03
      0.450000          0.125919E-03
      0.455000          0.123728E-03
      0.460000          0.121638E-03
      0.465000          0.119626E-03
      0.470000          0.117665E-03
      0.475000          0.115729E-03
      0.480000          0.113796E-03
      0.485000          0.111848E-03
      0.490000          0.109875E-03
      0.495000          0.107875E-03
      0.500000          0.105851E-03
