 I_abs(s)[cm^-1]/c[mg/ml]
       0.00000          0.143764E-01
      0.500000E-02      0.143037E-01
      0.100000E-01      0.140877E-01
      0.150000E-01      0.137345E-01
      0.200000E-01      0.132540E-01
      0.250000E-01      0.126595E-01
      0.300000E-01      0.119671E-01
      0.350000E-01      0.111950E-01
      0.400000E-01      0.103629E-01
      0.450000E-01      0.949126E-02
      0.500000E-01      0.860037E-02
      0.550000E-01      0.770974E-02
      0.600000E-01      0.683743E-02
      0.650000E-01      0.599950E-02
      0.700000E-01      0.520959E-02
      0.750000E-01      0.447860E-02
      0.800000E-01      0.381452E-02
      0.850000E-01      0.322247E-02
      0.900000E-01      0.270472E-02
      0.950000E-01      0.226097E-02
      0.100000          0.188866E-02
      0.105000          0.158331E-02
      0.110000          0.133895E-02
      0.115000          0.114861E-02
      0.120000          0.100467E-02
      0.125000          0.899333E-03
      0.130000          0.824949E-03
      0.135000          0.774323E-03
      0.140000          0.740948E-03
      0.145000          0.719172E-03
      0.150000          0.704285E-03
      0.155000          0.692558E-03
      0.160000          0.681209E-03
      0.165000          0.668337E-03
      0.170000          0.652815E-03
      0.175000          0.634162E-03
      0.180000          0.612406E-03
      0.185000          0.587941E-03
      0.190000          0.561404E-03
      0.195000          0.533552E-03
      0.200000          0.505172E-03
      0.205000          0.477003E-03
      0.210000          0.449687E-03
      0.215000          0.423735E-03
      0.220000          0.399518E-03
      0.225000          0.377266E-03
      0.230000          0.357086E-03
      0.235000          0.338979E-03
      0.240000          0.322868E-03
      0.245000          0.308622E-03
      0.250000          0.296077E-03
      0.255000          0.285060E-03
      0.260000          0.275401E-03
      0.265000          0.266942E-03
      0.270000          0.259543E-03
      0.275000          0.253081E-03
      0.280000          0.247451E-03
      0.285000          0.242556E-03
      0.290000          0.238307E-03
      0.295000          0.234615E-03
      0.300000          0.231388E-03
      0.305000          0.228527E-03
      0.310000          0.225927E-03
      0.315000          0.223478E-03
      0.320000          0.221067E-03
      0.325000          0.218583E-03
      0.330000          0.215920E-03
      0.335000          0.212985E-03
      0.340000          0.209701E-03
      0.345000          0.206012E-03
      0.350000          0.201885E-03
      0.355000          0.197313E-03
      0.360000          0.192314E-03
      0.365000          0.186930E-03
      0.370000          0.181227E-03
      0.375000          0.175286E-03
      0.380000          0.169203E-03
      0.385000          0.163083E-03
      0.390000          0.157031E-03
      0.395000          0.151151E-03
      0.400000          0.145542E-03
      0.405000          0.140286E-03
      0.410000          0.135454E-03
      0.415000          0.131099E-03
      0.420000          0.127253E-03
      0.425000          0.123931E-03
      0.430000          0.121126E-03
      0.435000          0.118816E-03
      0.440000          0.116962E-03
      0.445000          0.115513E-03
      0.450000          0.114407E-03
      0.455000          0.113575E-03
      0.460000          0.112945E-03
      0.465000          0.112447E-03
      0.470000          0.112010E-03
      0.475000          0.111571E-03
      0.480000          0.111075E-03
      0.485000          0.110475E-03
      0.490000          0.109736E-03
      0.495000          0.108834E-03
      0.500000          0.107755E-03
