 I_abs(s)[cm^-1]/c[mg/ml]
       0.00000          0.144555E-01
      0.500000E-02      0.143913E-01
      0.100000E-01      0.142004E-01
      0.150000E-01      0.138879E-01
      0.200000E-01      0.134616E-01
      0.250000E-01      0.129326E-01
      0.300000E-01      0.123140E-01
      0.350000E-01      0.116208E-01
      0.400000E-01      0.108692E-01
      0.450000E-01      0.100762E-01
      0.500000E-01      0.925881E-02
      0.550000E-01      0.843345E-02
      0.600000E-01      0.761556E-02
      0.650000E-01      0.681909E-02
      0.700000E-01      0.605615E-02
      0.750000E-01      0.533675E-02
      0.800000E-01      0.466865E-02
      0.850000E-01      0.405735E-02
      0.900000E-01      0.350607E-02
      0.950000E-01      0.301600E-02
      0.100000          0.258642E-02
      0.105000          0.221503E-02
      0.110000          0.189824E-02
      0.115000          0.163149E-02
      0.120000          0.140960E-02
      0.125000          0.122703E-02
      0.130000          0.107820E-02
      0.135000          0.957700E-03
      0.140000          0.860489E-03
      0.145000          0.782016E-03
      0.150000          0.718318E-03
      0.155000          0.666057E-03
      0.160000          0.622511E-03
      0.165000          0.585550E-03
      0.170000          0.553565E-03
      0.175000          0.525396E-03
      0.180000          0.500243E-03
      0.185000          0.477584E-03
      0.190000          0.457089E-03
      0.195000          0.438551E-03
      0.200000          0.421830E-03
      0.205000          0.406803E-03
      0.210000          0.393342E-03
      0.215000          0.381294E-03
      0.220000          0.370476E-03
      0.225000          0.360683E-03
      0.230000          0.351693E-03
      0.235000          0.343285E-03
      0.240000          0.335250E-03
      0.245000          0.327407E-03
      0.250000          0.319606E-03
      0.255000          0.311742E-03
      0.260000          0.303750E-03
      0.265000          0.295609E-03
      0.270000          0.287329E-03
      0.275000          0.278952E-03
      0.280000          0.270537E-03
      0.285000          0.262154E-03
      0.290000          0.253873E-03
      0.295000          0.245759E-03
      0.300000          0.237868E-03
      0.305000          0.230241E-03
      0.310000          0.222904E-03
      0.315000          0.215868E-03
      0.320000          0.209136E-03
      0.325000          0.202699E-03
      0.330000          0.196546E-03
      0.335000          0.190661E-03
      0.340000          0.185032E-03
      0.345000          0.179649E-03
      0.350000          0.174507E-03
      0.355000          0.169604E-03
      0.360000          0.164941E-03
      0.365000          0.160521E-03
      0.370000          0.156345E-03
      0.375000          0.152410E-03
      0.380000          0.148709E-03
      0.385000          0.145228E-03
      0.390000          0.141946E-03
      0.395000          0.138834E-03
      0.400000          0.135859E-03
      0.405000          0.132981E-03
      0.410000          0.130163E-03
      0.415000          0.127365E-03
      0.420000          0.124557E-03
      0.425000          0.121711E-03
      0.430000          0.118815E-03
      0.435000          0.115863E-03
      0.440000          0.112867E-03
      0.445000          0.109847E-03
      0.450000          0.106837E-03
      0.455000          0.103879E-03
      0.460000          0.101019E-03
      0.465000          0.983072E-04
      0.470000          0.957932E-04
      0.475000          0.935200E-04
      0.480000          0.915227E-04
      0.485000          0.898249E-04
      0.490000          0.884370E-04
      0.495000          0.873552E-04
      0.500000          0.865612E-04
