 I_abs(s)[cm^-1]/c[mg/ml]
       0.00000          0.141169E-01
      0.500000E-02      0.140282E-01
      0.100000E-01      0.137660E-01
      0.150000E-01      0.133415E-01
      0.200000E-01      0.127726E-01
      0.250000E-01      0.120825E-01
      0.300000E-01      0.112986E-01
      0.350000E-01      0.104501E-01
      0.400000E-01      0.956674E-02
      0.450000E-01      0.867696E-02
      0.500000E-01      0.780627E-02
      0.550000E-01      0.697616E-02
      0.600000E-01      0.620333E-02
      0.650000E-01      0.549926E-02
      0.700000E-01      0.487030E-02
      0.750000E-01      0.431804E-02
      0.800000E-01      0.384004E-02
      0.850000E-01      0.343069E-02
      0.900000E-01      0.308224E-02
      0.950000E-01      0.278579E-02
      0.100000          0.253220E-02
      0.105000          0.231282E-02
      0.110000          0.212008E-02
      0.115000          0.194781E-02
      0.120000          0.179135E-02
      0.125000          0.164753E-02
      0.130000          0.151443E-02
      0.135000          0.139114E-02
      0.140000          0.127738E-02
      0.145000          0.117322E-02
      0.150000          0.107880E-02
      0.155000          0.994109E-03
      0.160000          0.918896E-03
      0.165000          0.852596E-03
      0.170000          0.794376E-03
      0.175000          0.743205E-03
      0.180000          0.697953E-03
      0.185000          0.657502E-03
      0.190000          0.620836E-03
      0.195000          0.587107E-03
      0.200000          0.555668E-03
      0.205000          0.526075E-03
      0.210000          0.498056E-03
      0.215000          0.471475E-03
      0.220000          0.446270E-03
      0.225000          0.422412E-03
      0.230000          0.399866E-03
      0.235000          0.378569E-03
      0.240000          0.358427E-03
      0.245000          0.339329E-03
      0.250000          0.321168E-03
      0.255000          0.303864E-03
      0.260000          0.287391E-03
      0.265000          0.271789E-03
      0.270000          0.257166E-03
      0.275000          0.243682E-03
      0.280000          0.231529E-03
      0.285000          0.220892E-03
      0.290000          0.211917E-03
      0.295000          0.204671E-03
      0.300000          0.199123E-03
      0.305000          0.195125E-03
      0.310000          0.192416E-03
      0.315000          0.190641E-03
      0.320000          0.189380E-03
      0.325000          0.188189E-03
      0.330000          0.186646E-03
      0.335000          0.184387E-03
      0.340000          0.181149E-03
      0.345000          0.176789E-03
      0.350000          0.171294E-03
      0.355000          0.164778E-03
      0.360000          0.157458E-03
      0.365000          0.149634E-03
      0.370000          0.141642E-03
      0.375000          0.133827E-03
      0.380000          0.126500E-03
      0.385000          0.119916E-03
      0.390000          0.114252E-03
      0.395000          0.109600E-03
      0.400000          0.105970E-03
      0.405000          0.103300E-03
      0.410000          0.101477E-03
      0.415000          0.100354E-03
      0.420000          0.997735E-04
      0.425000          0.995857E-04
      0.430000          0.996620E-04
      0.435000          0.999024E-04
      0.440000          0.100237E-03
      0.445000          0.100623E-03
      0.450000          0.101035E-03
      0.455000          0.101458E-03
      0.460000          0.101879E-03
      0.465000          0.102274E-03
      0.470000          0.102610E-03
      0.475000          0.102842E-03
      0.480000          0.102916E-03
      0.485000          0.102776E-03
      0.490000          0.102372E-03
      0.495000          0.101669E-03
      0.500000          0.100652E-03
