 I_abs(s)[cm^-1]/c[mg/ml]
       0.00000          0.141953E-01
      0.500000E-02      0.141016E-01
      0.100000E-01      0.138246E-01
      0.150000E-01      0.133757E-01
      0.200000E-01      0.127735E-01
      0.250000E-01      0.120420E-01
      0.300000E-01      0.112096E-01
      0.350000E-01      0.103066E-01
      0.400000E-01      0.936415E-02
      0.450000E-01      0.841193E-02
      0.500000E-01      0.747693E-02
      0.550000E-01      0.658212E-02
      0.600000E-01      0.574567E-02
      0.650000E-01      0.498051E-02
      0.700000E-01      0.429439E-02
      0.750000E-01      0.369020E-02
      0.800000E-01      0.316669E-02
      0.850000E-01      0.271932E-02
      0.900000E-01      0.234122E-02
      0.950000E-01      0.202416E-02
      0.100000          0.175948E-02
      0.105000          0.153876E-02
      0.110000          0.135438E-02
      0.115000          0.119986E-02
      0.120000          0.107000E-02
      0.125000          0.960797E-03
      0.130000          0.869288E-03
      0.135000          0.793305E-03
      0.140000          0.731189E-03
      0.145000          0.681521E-03
      0.150000          0.642914E-03
      0.155000          0.613876E-03
      0.160000          0.592750E-03
      0.165000          0.577731E-03
      0.170000          0.566947E-03
      0.175000          0.558575E-03
      0.180000          0.550963E-03
      0.185000          0.542754E-03
      0.190000          0.532967E-03
      0.195000          0.521041E-03
      0.200000          0.506834E-03
      0.205000          0.490571E-03
      0.210000          0.472758E-03
      0.215000          0.454078E-03
      0.220000          0.435278E-03
      0.225000          0.417058E-03
      0.230000          0.399988E-03
      0.235000          0.384455E-03
      0.240000          0.370633E-03
      0.245000          0.358497E-03
      0.250000          0.347852E-03
      0.255000          0.338391E-03
      0.260000          0.329753E-03
      0.265000          0.321587E-03
      0.270000          0.313601E-03
      0.275000          0.305597E-03
      0.280000          0.297495E-03
      0.285000          0.289321E-03
      0.290000          0.281199E-03
      0.295000          0.273315E-03
      0.300000          0.265879E-03
      0.305000          0.259094E-03
      0.310000          0.253117E-03
      0.315000          0.248040E-03
      0.320000          0.243875E-03
      0.325000          0.240550E-03
      0.330000          0.237927E-03
      0.335000          0.235811E-03
      0.340000          0.233976E-03
      0.345000          0.232190E-03
      0.350000          0.230240E-03
      0.355000          0.227943E-03
      0.360000          0.225167E-03
      0.365000          0.221831E-03
      0.370000          0.217907E-03
      0.375000          0.213418E-03
      0.380000          0.208421E-03
      0.385000          0.203004E-03
      0.390000          0.197268E-03
      0.395000          0.191325E-03
      0.400000          0.185281E-03
      0.405000          0.179238E-03
      0.410000          0.173287E-03
      0.415000          0.167509E-03
      0.420000          0.161973E-03
      0.425000          0.156741E-03
      0.430000          0.151862E-03
      0.435000          0.147380E-03
      0.440000          0.143324E-03
      0.445000          0.139716E-03
      0.450000          0.136561E-03
      0.455000          0.133846E-03
      0.460000          0.131545E-03
      0.465000          0.129608E-03
      0.470000          0.127972E-03
      0.475000          0.126555E-03
      0.480000          0.125268E-03
      0.485000          0.124014E-03
      0.490000          0.122698E-03
      0.495000          0.121235E-03
      0.500000          0.119550E-03
