 I_abs(s)[cm^-1]/c[mg/ml]
       0.00000          0.146382E-01
      0.500000E-02      0.145713E-01
      0.100000E-01      0.143724E-01
      0.150000E-01      0.140468E-01
      0.200000E-01      0.136032E-01
      0.250000E-01      0.130532E-01
      0.300000E-01      0.124109E-01
      0.350000E-01      0.116923E-01
      0.400000E-01      0.109145E-01
      0.450000E-01      0.100954E-01
      0.500000E-01      0.925278E-02
      0.550000E-01      0.840373E-02
      0.600000E-01      0.756417E-02
      0.650000E-01      0.674832E-02
      0.700000E-01      0.596841E-02
      0.750000E-01      0.523442E-02
      0.800000E-01      0.455395E-02
      0.850000E-01      0.393224E-02
      0.900000E-01      0.337227E-02
      0.950000E-01      0.287494E-02
      0.100000          0.243933E-02
      0.105000          0.206299E-02
      0.110000          0.174228E-02
      0.115000          0.147269E-02
      0.120000          0.124916E-02
      0.125000          0.106639E-02
      0.130000          0.919034E-03
      0.135000          0.801940E-03
      0.140000          0.710290E-03
      0.145000          0.639694E-03
      0.150000          0.586248E-03
      0.155000          0.546544E-03
      0.160000          0.517662E-03
      0.165000          0.497127E-03
      0.170000          0.482860E-03
      0.175000          0.473124E-03
      0.180000          0.466466E-03
      0.185000          0.461673E-03
      0.190000          0.457728E-03
      0.195000          0.453786E-03
      0.200000          0.449149E-03
      0.205000          0.443261E-03
      0.210000          0.435703E-03
      0.215000          0.426191E-03
      0.220000          0.414578E-03
      0.225000          0.400854E-03
      0.230000          0.385135E-03
      0.235000          0.367660E-03
      0.240000          0.348770E-03
      0.245000          0.328886E-03
      0.250000          0.308487E-03
      0.255000          0.288081E-03
      0.260000          0.268172E-03
      0.265000          0.249236E-03
      0.270000          0.231696E-03
      0.275000          0.215897E-03
      0.280000          0.202095E-03
      0.285000          0.190448E-03
      0.290000          0.181013E-03
      0.295000          0.173749E-03
      0.300000          0.168529E-03
      0.305000          0.165154E-03
      0.310000          0.163367E-03
      0.315000          0.162874E-03
      0.320000          0.163361E-03
      0.325000          0.164517E-03
      0.330000          0.166041E-03
      0.335000          0.167664E-03
      0.340000          0.169154E-03
      0.345000          0.170322E-03
      0.350000          0.171028E-03
      0.355000          0.171180E-03
      0.360000          0.170730E-03
      0.365000          0.169670E-03
      0.370000          0.168026E-03
      0.375000          0.165852E-03
      0.380000          0.163221E-03
      0.385000          0.160220E-03
      0.390000          0.156942E-03
      0.395000          0.153479E-03
      0.400000          0.149921E-03
      0.405000          0.146352E-03
      0.410000          0.142843E-03
      0.415000          0.139456E-03
      0.420000          0.136241E-03
      0.425000          0.133234E-03
      0.430000          0.130462E-03
      0.435000          0.127939E-03
      0.440000          0.125670E-03
      0.445000          0.123653E-03
      0.450000          0.121875E-03
      0.455000          0.120320E-03
      0.460000          0.118966E-03
      0.465000          0.117785E-03
      0.470000          0.116747E-03
      0.475000          0.115820E-03
      0.480000          0.114971E-03
      0.485000          0.114165E-03
      0.490000          0.113370E-03
      0.495000          0.112552E-03
      0.500000          0.111684E-03
