 I_abs(s)[cm^-1]/c[mg/ml]
       0.00000          0.141169E-01
      0.500000E-02      0.140358E-01
      0.100000E-01      0.137954E-01
      0.150000E-01      0.134037E-01
      0.200000E-01      0.128740E-01
      0.250000E-01      0.122238E-01
      0.300000E-01      0.114739E-01
      0.350000E-01      0.106476E-01
      0.400000E-01      0.976948E-02
      0.450000E-01      0.886429E-02
      0.500000E-01      0.795575E-02
      0.550000E-01      0.706570E-02
      0.600000E-01      0.621325E-02
      0.650000E-01      0.541417E-02
      0.700000E-01      0.468052E-02
      0.750000E-01      0.402048E-02
      0.800000E-01      0.343844E-02
      0.850000E-01      0.293523E-02
      0.900000E-01      0.250860E-02
      0.950000E-01      0.215372E-02
      0.100000          0.186382E-02
      0.105000          0.163086E-02
      0.110000          0.144611E-02
      0.115000          0.130076E-02
      0.120000          0.118639E-02
      0.125000          0.109537E-02
      0.130000          0.102112E-02
      0.135000          0.958245E-03
      0.140000          0.902586E-03
      0.145000          0.851186E-03
      0.150000          0.802157E-03
      0.155000          0.754507E-03
      0.160000          0.707949E-03
      0.165000          0.662688E-03
      0.170000          0.619229E-03
      0.175000          0.578208E-03
      0.180000          0.540251E-03
      0.185000          0.505876E-03
      0.190000          0.475431E-03
      0.195000          0.449067E-03
      0.200000          0.426737E-03
      0.205000          0.408219E-03
      0.210000          0.393154E-03
      0.215000          0.381088E-03
      0.220000          0.371513E-03
      0.225000          0.363905E-03
      0.230000          0.357760E-03
      0.235000          0.352610E-03
      0.240000          0.348039E-03
      0.245000          0.343688E-03
      0.250000          0.339259E-03
      0.255000          0.334507E-03
      0.260000          0.329237E-03
      0.265000          0.323300E-03
      0.270000          0.316592E-03
      0.275000          0.309048E-03
      0.280000          0.300645E-03
      0.285000          0.291402E-03
      0.290000          0.281379E-03
      0.295000          0.270682E-03
      0.300000          0.259453E-03
      0.305000          0.247872E-03
      0.310000          0.236145E-03
      0.315000          0.224496E-03
      0.320000          0.213155E-03
      0.325000          0.202342E-03
      0.330000          0.192260E-03
      0.335000          0.183074E-03
      0.340000          0.174910E-03
      0.345000          0.167841E-03
      0.350000          0.161890E-03
      0.355000          0.157025E-03
      0.360000          0.153165E-03
      0.365000          0.150192E-03
      0.370000          0.147954E-03
      0.375000          0.146282E-03
      0.380000          0.144998E-03
      0.385000          0.143931E-03
      0.390000          0.142924E-03
      0.395000          0.141843E-03
      0.400000          0.140583E-03
      0.405000          0.139074E-03
      0.410000          0.137277E-03
      0.415000          0.135183E-03
      0.420000          0.132815E-03
      0.425000          0.130216E-03
      0.430000          0.127446E-03
      0.435000          0.124575E-03
      0.440000          0.121679E-03
      0.445000          0.118830E-03
      0.450000          0.116098E-03
      0.455000          0.113541E-03
      0.460000          0.111205E-03
      0.465000          0.109123E-03
      0.470000          0.107314E-03
      0.475000          0.105784E-03
      0.480000          0.104524E-03
      0.485000          0.103517E-03
      0.490000          0.102732E-03
      0.495000          0.102133E-03
      0.500000          0.101677E-03
