 I_abs(s)[cm^-1]/c[mg/ml]
       0.00000          0.139998E-01
      0.500000E-02      0.139105E-01
      0.100000E-01      0.136465E-01
      0.150000E-01      0.132195E-01
      0.200000E-01      0.126479E-01
      0.250000E-01      0.119559E-01
      0.300000E-01      0.111714E-01
      0.350000E-01      0.103245E-01
      0.400000E-01      0.944561E-02
      0.450000E-01      0.856332E-02
      0.500000E-01      0.770324E-02
      0.550000E-01      0.688658E-02
      0.600000E-01      0.612939E-02
      0.650000E-01      0.544225E-02
      0.700000E-01      0.483039E-02
      0.750000E-01      0.429418E-02
      0.800000E-01      0.382992E-02
      0.850000E-01      0.343087E-02
      0.900000E-01      0.308839E-02
      0.950000E-01      0.279294E-02
      0.100000          0.253514E-02
      0.105000          0.230649E-02
      0.110000          0.209993E-02
      0.115000          0.191016E-02
      0.120000          0.173365E-02
      0.125000          0.156851E-02
      0.130000          0.141420E-02
      0.135000          0.127108E-02
      0.140000          0.114005E-02
      0.145000          0.102206E-02
      0.150000          0.917873E-03
      0.155000          0.827753E-03
      0.160000          0.751389E-03
      0.165000          0.687871E-03
      0.170000          0.635777E-03
      0.175000          0.593318E-03
      0.180000          0.558532E-03
      0.185000          0.529471E-03
      0.190000          0.504373E-03
      0.195000          0.481789E-03
      0.200000          0.460659E-03
      0.205000          0.440331E-03
      0.210000          0.420522E-03
      0.215000          0.401249E-03
      0.220000          0.382730E-03
      0.225000          0.365277E-03
      0.230000          0.349199E-03
      0.235000          0.334725E-03
      0.240000          0.321953E-03
      0.245000          0.310831E-03
      0.250000          0.301163E-03
      0.255000          0.292647E-03
      0.260000          0.284914E-03
      0.265000          0.277588E-03
      0.270000          0.270328E-03
      0.275000          0.262871E-03
      0.280000          0.255053E-03
      0.285000          0.246816E-03
      0.290000          0.238203E-03
      0.295000          0.229330E-03
      0.300000          0.220363E-03
      0.305000          0.211481E-03
      0.310000          0.202853E-03
      0.315000          0.194609E-03
      0.320000          0.186832E-03
      0.325000          0.179551E-03
      0.330000          0.172751E-03
      0.335000          0.166381E-03
      0.340000          0.160374E-03
      0.345000          0.154666E-03
      0.350000          0.149210E-03
      0.355000          0.143985E-03
      0.360000          0.139006E-03
      0.365000          0.134319E-03
      0.370000          0.129994E-03
      0.375000          0.126112E-03
      0.380000          0.122754E-03
      0.385000          0.119988E-03
      0.390000          0.117853E-03
      0.395000          0.116355E-03
      0.400000          0.115466E-03
      0.405000          0.115121E-03
      0.410000          0.115227E-03
      0.415000          0.115676E-03
      0.420000          0.116348E-03
      0.425000          0.117130E-03
      0.430000          0.117922E-03
      0.435000          0.118644E-03
      0.440000          0.119239E-03
      0.445000          0.119675E-03
      0.450000          0.119939E-03
      0.455000          0.120034E-03
      0.460000          0.119970E-03
      0.465000          0.119759E-03
      0.470000          0.119408E-03
      0.475000          0.118918E-03
      0.480000          0.118277E-03
      0.485000          0.117470E-03
      0.490000          0.116473E-03
      0.495000          0.115264E-03
      0.500000          0.113827E-03
