 I_abs(s)[cm^-1]/c[mg/ml]
       0.00000          0.142267E-01
      0.500000E-02      0.141485E-01
      0.100000E-01      0.139166E-01
      0.150000E-01      0.135387E-01
      0.200000E-01      0.130273E-01
      0.250000E-01      0.123990E-01
      0.300000E-01      0.116735E-01
      0.350000E-01      0.108727E-01
      0.400000E-01      0.100197E-01
      0.450000E-01      0.913757E-02
      0.500000E-01      0.824842E-02
      0.550000E-01      0.737256E-02
      0.600000E-01      0.652772E-02
      0.650000E-01      0.572854E-02
      0.700000E-01      0.498635E-02
      0.750000E-01      0.430901E-02
      0.800000E-01      0.370106E-02
      0.850000E-01      0.316401E-02
      0.900000E-01      0.269672E-02
      0.950000E-01      0.229594E-02
      0.100000          0.195681E-02
      0.105000          0.167339E-02
      0.110000          0.143917E-02
      0.115000          0.124750E-02
      0.120000          0.109192E-02
      0.125000          0.966433E-03
      0.130000          0.865680E-03
      0.135000          0.784999E-03
      0.140000          0.720461E-03
      0.145000          0.668824E-03
      0.150000          0.627460E-03
      0.155000          0.594266E-03
      0.160000          0.567561E-03
      0.165000          0.545997E-03
      0.170000          0.528480E-03
      0.175000          0.514106E-03
      0.180000          0.502115E-03
      0.185000          0.491868E-03
      0.190000          0.482823E-03
      0.195000          0.474528E-03
      0.200000          0.466621E-03
      0.205000          0.458816E-03
      0.210000          0.450909E-03
      0.215000          0.442759E-03
      0.220000          0.434286E-03
      0.225000          0.425451E-03
      0.230000          0.416249E-03
      0.235000          0.406692E-03
      0.240000          0.396802E-03
      0.245000          0.386604E-03
      0.250000          0.376121E-03
      0.255000          0.365376E-03
      0.260000          0.354394E-03
      0.265000          0.343206E-03
      0.270000          0.331855E-03
      0.275000          0.320396E-03
      0.280000          0.308904E-03
      0.285000          0.297468E-03
      0.290000          0.286189E-03
      0.295000          0.275177E-03
      0.300000          0.264541E-03
      0.305000          0.254384E-03
      0.310000          0.244793E-03
      0.315000          0.235833E-03
      0.320000          0.227542E-03
      0.325000          0.219929E-03
      0.330000          0.212974E-03
      0.335000          0.206629E-03
      0.340000          0.200825E-03
      0.345000          0.195477E-03
      0.350000          0.190490E-03
      0.355000          0.185768E-03
      0.360000          0.181220E-03
      0.365000          0.176765E-03
      0.370000          0.172336E-03
      0.375000          0.167887E-03
      0.380000          0.163386E-03
      0.385000          0.158824E-03
      0.390000          0.154205E-03
      0.395000          0.149551E-03
      0.400000          0.144891E-03
      0.405000          0.140267E-03
      0.410000          0.135724E-03
      0.415000          0.131310E-03
      0.420000          0.127072E-03
      0.425000          0.123057E-03
      0.430000          0.119307E-03
      0.435000          0.115858E-03
      0.440000          0.112742E-03
      0.445000          0.109982E-03
      0.450000          0.107595E-03
      0.455000          0.105588E-03
      0.460000          0.103963E-03
      0.465000          0.102712E-03
      0.470000          0.101818E-03
      0.475000          0.101260E-03
      0.480000          0.101006E-03
      0.485000          0.101022E-03
      0.490000          0.101267E-03
      0.495000          0.101698E-03
      0.500000          0.102268E-03
