 I_abs(s)[cm^-1]/c[mg/ml]
       0.00000          0.145348E-01
      0.500000E-02      0.144795E-01
      0.100000E-01      0.143146E-01
      0.150000E-01      0.140438E-01
      0.200000E-01      0.136727E-01
      0.250000E-01      0.132090E-01
      0.300000E-01      0.126624E-01
      0.350000E-01      0.120437E-01
      0.400000E-01      0.113652E-01
      0.450000E-01      0.106398E-01
      0.500000E-01      0.988083E-02
      0.550000E-01      0.910160E-02
      0.600000E-01      0.831516E-02
      0.650000E-01      0.753386E-02
      0.700000E-01      0.676908E-02
      0.750000E-01      0.603101E-02
      0.800000E-01      0.532841E-02
      0.850000E-01      0.466852E-02
      0.900000E-01      0.405696E-02
      0.950000E-01      0.349774E-02
      0.100000          0.299327E-02
      0.105000          0.254448E-02
      0.110000          0.215089E-02
      0.115000          0.181086E-02
      0.120000          0.152170E-02
      0.125000          0.127989E-02
      0.130000          0.108131E-02
      0.135000          0.921427E-03
      0.140000          0.795471E-03
      0.145000          0.698631E-03
      0.150000          0.626203E-03
      0.155000          0.573713E-03
      0.160000          0.537024E-03
      0.165000          0.512407E-03
      0.170000          0.496589E-03
      0.175000          0.486776E-03
      0.180000          0.480655E-03
      0.185000          0.476377E-03
      0.190000          0.472523E-03
      0.195000          0.468065E-03
      0.200000          0.462311E-03
      0.205000          0.454859E-03
      0.210000          0.445536E-03
      0.215000          0.434350E-03
      0.220000          0.421442E-03
      0.225000          0.407044E-03
      0.230000          0.391441E-03
      0.235000          0.374945E-03
      0.240000          0.357870E-03
      0.245000          0.340514E-03
      0.250000          0.323152E-03
      0.255000          0.306028E-03
      0.260000          0.289351E-03
      0.265000          0.273294E-03
      0.270000          0.258000E-03
      0.275000          0.243582E-03
      0.280000          0.230126E-03
      0.285000          0.217697E-03
      0.290000          0.206338E-03
      0.295000          0.196076E-03
      0.300000          0.186922E-03
      0.305000          0.178873E-03
      0.310000          0.171912E-03
      0.315000          0.166009E-03
      0.320000          0.161119E-03
      0.325000          0.157188E-03
      0.330000          0.154146E-03
      0.335000          0.151913E-03
      0.340000          0.150400E-03
      0.345000          0.149507E-03
      0.350000          0.149129E-03
      0.355000          0.149155E-03
      0.360000          0.149473E-03
      0.365000          0.149973E-03
      0.370000          0.150548E-03
      0.375000          0.151099E-03
      0.380000          0.151533E-03
      0.385000          0.151772E-03
      0.390000          0.151749E-03
      0.395000          0.151412E-03
      0.400000          0.150725E-03
      0.405000          0.149666E-03
      0.410000          0.148229E-03
      0.415000          0.146421E-03
      0.420000          0.144262E-03
      0.425000          0.141785E-03
      0.430000          0.139028E-03
      0.435000          0.136040E-03
      0.440000          0.132872E-03
      0.445000          0.129577E-03
      0.450000          0.126211E-03
      0.455000          0.122824E-03
      0.460000          0.119466E-03
      0.465000          0.116179E-03
      0.470000          0.113000E-03
      0.475000          0.109960E-03
      0.480000          0.107081E-03
      0.485000          0.104379E-03
      0.490000          0.101862E-03
      0.495000          0.995335E-04
      0.500000          0.973888E-04
