 I_abs(s)[cm^-1]/c[mg/ml]
       0.00000          0.144872E-01
      0.500000E-02      0.144059E-01
      0.100000E-01      0.141649E-01
      0.150000E-01      0.137727E-01
      0.200000E-01      0.132428E-01
      0.250000E-01      0.125931E-01
      0.300000E-01      0.118449E-01
      0.350000E-01      0.110216E-01
      0.400000E-01      0.101478E-01
      0.450000E-01      0.924790E-02
      0.500000E-01      0.834486E-02
      0.550000E-01      0.745957E-02
      0.600000E-01      0.660991E-02
      0.650000E-01      0.581027E-02
      0.700000E-01      0.507134E-02
      0.750000E-01      0.440004E-02
      0.800000E-01      0.379980E-02
      0.850000E-01      0.327089E-02
      0.900000E-01      0.281096E-02
      0.950000E-01      0.241565E-02
      0.100000          0.207921E-02
      0.105000          0.179504E-02
      0.110000          0.155629E-02
      0.115000          0.135629E-02
      0.120000          0.118882E-02
      0.125000          0.104842E-02
      0.130000          0.930431E-03
      0.135000          0.831043E-03
      0.140000          0.747240E-03
      0.145000          0.676689E-03
      0.150000          0.617605E-03
      0.155000          0.568607E-03
      0.160000          0.528581E-03
      0.165000          0.496570E-03
      0.170000          0.471680E-03
      0.175000          0.453029E-03
      0.180000          0.439715E-03
      0.185000          0.430814E-03
      0.190000          0.425393E-03
      0.195000          0.422536E-03
      0.200000          0.421373E-03
      0.205000          0.421109E-03
      0.210000          0.421051E-03
      0.215000          0.420621E-03
      0.220000          0.419370E-03
      0.225000          0.416973E-03
      0.230000          0.413227E-03
      0.235000          0.408039E-03
      0.240000          0.401412E-03
      0.245000          0.393428E-03
      0.250000          0.384230E-03
      0.255000          0.374008E-03
      0.260000          0.362982E-03
      0.265000          0.351388E-03
      0.270000          0.339466E-03
      0.275000          0.327448E-03
      0.280000          0.315547E-03
      0.285000          0.303952E-03
      0.290000          0.292817E-03
      0.295000          0.282264E-03
      0.300000          0.272373E-03
      0.305000          0.263188E-03
      0.310000          0.254717E-03
      0.315000          0.246939E-03
      0.320000          0.239806E-03
      0.325000          0.233253E-03
      0.330000          0.227206E-03
      0.335000          0.221586E-03
      0.340000          0.216317E-03
      0.345000          0.211326E-03
      0.350000          0.206552E-03
      0.355000          0.201944E-03
      0.360000          0.197458E-03
      0.365000          0.193060E-03
      0.370000          0.188721E-03
      0.375000          0.184417E-03
      0.380000          0.180124E-03
      0.385000          0.175821E-03
      0.390000          0.171487E-03
      0.395000          0.167103E-03
      0.400000          0.162654E-03
      0.405000          0.158127E-03
      0.410000          0.153520E-03
      0.415000          0.148838E-03
      0.420000          0.144098E-03
      0.425000          0.139327E-03
      0.430000          0.134564E-03
      0.435000          0.129854E-03
      0.440000          0.125251E-03
      0.445000          0.120810E-03
      0.450000          0.116587E-03
      0.455000          0.112632E-03
      0.460000          0.108989E-03
      0.465000          0.105690E-03
      0.470000          0.102756E-03
      0.475000          0.100195E-03
      0.480000          0.980000E-04
      0.485000          0.961542E-04
      0.490000          0.946292E-04
      0.495000          0.933889E-04
      0.500000          0.923921E-04
