 I_abs(s)[cm^-1]/c[mg/ml]
       0.00000          0.148061E-01
      0.500000E-02      0.147491E-01
      0.100000E-01      0.145796E-01
      0.150000E-01      0.143013E-01
      0.200000E-01      0.139203E-01
      0.250000E-01      0.134449E-01
      0.300000E-01      0.128853E-01
      0.350000E-01      0.122532E-01
      0.400000E-01      0.115615E-01
      0.450000E-01      0.108238E-01
      0.500000E-01      0.100541E-01
      0.550000E-01      0.926605E-02
      0.600000E-01      0.847315E-02
      0.650000E-01      0.768786E-02
      0.700000E-01      0.692156E-02
      0.750000E-01      0.618423E-02
      0.800000E-01      0.548426E-02
      0.850000E-01      0.482839E-02
      0.900000E-01      0.422163E-02
      0.950000E-01      0.366727E-02
      0.100000          0.316701E-02
      0.105000          0.272103E-02
      0.110000          0.232823E-02
      0.115000          0.198637E-02
      0.120000          0.169230E-02
      0.125000          0.144224E-02
      0.130000          0.123193E-02
      0.135000          0.105687E-02
      0.140000          0.912528E-03
      0.145000          0.794462E-03
      0.150000          0.698480E-03
      0.155000          0.620732E-03
      0.160000          0.557776E-03
      0.165000          0.506619E-03
      0.170000          0.464727E-03
      0.175000          0.430013E-03
      0.180000          0.400806E-03
      0.185000          0.375810E-03
      0.190000          0.354047E-03
      0.195000          0.334807E-03
      0.200000          0.317587E-03
      0.205000          0.302042E-03
      0.210000          0.287937E-03
      0.215000          0.275112E-03
      0.220000          0.263446E-03
      0.225000          0.252841E-03
      0.230000          0.243203E-03
      0.235000          0.234440E-03
      0.240000          0.226455E-03
      0.245000          0.219151E-03
      0.250000          0.212435E-03
      0.255000          0.206223E-03
      0.260000          0.200443E-03
      0.265000          0.195040E-03
      0.270000          0.189981E-03
      0.275000          0.185249E-03
      0.280000          0.180845E-03
      0.285000          0.176783E-03
      0.290000          0.173085E-03
      0.295000          0.169776E-03
      0.300000          0.166879E-03
      0.305000          0.164408E-03
      0.310000          0.162363E-03
      0.315000          0.160731E-03
      0.320000          0.159481E-03
      0.325000          0.158567E-03
      0.330000          0.157927E-03
      0.335000          0.157489E-03
      0.340000          0.157174E-03
      0.345000          0.156899E-03
      0.350000          0.156584E-03
      0.355000          0.156157E-03
      0.360000          0.155555E-03
      0.365000          0.154730E-03
      0.370000          0.153651E-03
      0.375000          0.152301E-03
      0.380000          0.150684E-03
      0.385000          0.148816E-03
      0.390000          0.146726E-03
      0.395000          0.144456E-03
      0.400000          0.142053E-03
      0.405000          0.139566E-03
      0.410000          0.137046E-03
      0.415000          0.134539E-03
      0.420000          0.132088E-03
      0.425000          0.129724E-03
      0.430000          0.127473E-03
      0.435000          0.125350E-03
      0.440000          0.123361E-03
      0.445000          0.121504E-03
      0.450000          0.119770E-03
      0.455000          0.118146E-03
      0.460000          0.116614E-03
      0.465000          0.115155E-03
      0.470000          0.113753E-03
      0.475000          0.112389E-03
      0.480000          0.111053E-03
      0.485000          0.109734E-03
      0.490000          0.108429E-03
      0.495000          0.107139E-03
      0.500000          0.105867E-03
