 I_abs(s)[cm^-1]/c[mg/ml]
       0.00000          0.146302E-01
      0.500000E-02      0.145575E-01
      0.100000E-01      0.143415E-01
      0.150000E-01      0.139885E-01
      0.200000E-01      0.135088E-01
      0.250000E-01      0.129160E-01
      0.300000E-01      0.122265E-01
      0.350000E-01      0.114591E-01
      0.400000E-01      0.106337E-01
      0.450000E-01      0.977070E-02
      0.500000E-01      0.889044E-02
      0.550000E-01      0.801214E-02
      0.600000E-01      0.715336E-02
      0.650000E-01      0.632949E-02
      0.700000E-01      0.555336E-02
      0.750000E-01      0.483494E-02
      0.800000E-01      0.418131E-02
      0.850000E-01      0.359664E-02
      0.900000E-01      0.308242E-02
      0.950000E-01      0.263772E-02
      0.100000          0.225951E-02
      0.105000          0.194313E-02
      0.110000          0.168269E-02
      0.115000          0.147149E-02
      0.120000          0.130247E-02
      0.125000          0.116854E-02
      0.130000          0.106289E-02
      0.135000          0.979286E-03
      0.140000          0.912166E-03
      0.145000          0.856814E-03
      0.150000          0.809379E-03
      0.155000          0.766877E-03
      0.160000          0.727141E-03
      0.165000          0.688734E-03
      0.170000          0.650850E-03
      0.175000          0.613190E-03
      0.180000          0.575845E-03
      0.185000          0.539178E-03
      0.190000          0.503716E-03
      0.195000          0.470056E-03
      0.200000          0.438788E-03
      0.205000          0.410431E-03
      0.210000          0.385392E-03
      0.215000          0.363936E-03
      0.220000          0.346168E-03
      0.225000          0.332037E-03
      0.230000          0.321339E-03
      0.235000          0.313738E-03
      0.240000          0.308788E-03
      0.245000          0.305965E-03
      0.250000          0.304691E-03
      0.255000          0.304373E-03
      0.260000          0.304435E-03
      0.265000          0.304340E-03
      0.270000          0.303622E-03
      0.275000          0.301905E-03
      0.280000          0.298914E-03
      0.285000          0.294485E-03
      0.290000          0.288565E-03
      0.295000          0.281207E-03
      0.300000          0.272556E-03
      0.305000          0.262834E-03
      0.310000          0.252318E-03
      0.315000          0.241320E-03
      0.320000          0.230161E-03
      0.325000          0.219153E-03
      0.330000          0.208578E-03
      0.335000          0.198673E-03
      0.340000          0.189619E-03
      0.345000          0.181538E-03
      0.350000          0.174490E-03
      0.355000          0.168477E-03
      0.360000          0.163451E-03
      0.365000          0.159324E-03
      0.370000          0.155981E-03
      0.375000          0.153289E-03
      0.380000          0.151111E-03
      0.385000          0.149317E-03
      0.390000          0.147787E-03
      0.395000          0.146423E-03
      0.400000          0.145144E-03
      0.405000          0.143892E-03
      0.410000          0.142626E-03
      0.415000          0.141321E-03
      0.420000          0.139963E-03
      0.425000          0.138542E-03
      0.430000          0.137054E-03
      0.435000          0.135490E-03
      0.440000          0.133840E-03
      0.445000          0.132089E-03
      0.450000          0.130221E-03
      0.455000          0.128216E-03
      0.460000          0.126057E-03
      0.465000          0.123734E-03
      0.470000          0.121239E-03
      0.475000          0.118578E-03
      0.480000          0.115769E-03
      0.485000          0.112839E-03
      0.490000          0.109829E-03
      0.495000          0.106789E-03
      0.500000          0.103777E-03
