 I_abs(s)[cm^-1]/c[mg/ml]
       0.00000          0.146190E-01
      0.500000E-02      0.145427E-01
      0.100000E-01      0.143161E-01
      0.150000E-01      0.139463E-01
      0.200000E-01      0.134450E-01
      0.250000E-01      0.128277E-01
      0.300000E-01      0.121127E-01
      0.350000E-01      0.113209E-01
      0.400000E-01      0.104743E-01
      0.450000E-01      0.959532E-02
      0.500000E-01      0.870579E-02
      0.550000E-01      0.782606E-02
      0.600000E-01      0.697429E-02
      0.650000E-01      0.616591E-02
      0.700000E-01      0.541323E-02
      0.750000E-01      0.472518E-02
      0.800000E-01      0.410735E-02
      0.850000E-01      0.356212E-02
      0.900000E-01      0.308899E-02
      0.950000E-01      0.268494E-02
      0.100000          0.234499E-02
      0.105000          0.206268E-02
      0.110000          0.183068E-02
      0.115000          0.164124E-02
      0.120000          0.148669E-02
      0.125000          0.135979E-02
      0.130000          0.125408E-02
      0.135000          0.116400E-02
      0.140000          0.108505E-02
      0.145000          0.101376E-02
      0.150000          0.947696E-03
      0.155000          0.885281E-03
      0.160000          0.825687E-03
      0.165000          0.768645E-03
      0.170000          0.714277E-03
      0.175000          0.662928E-03
      0.180000          0.615027E-03
      0.185000          0.570972E-03
      0.190000          0.531049E-03
      0.195000          0.495389E-03
      0.200000          0.463945E-03
      0.205000          0.436509E-03
      0.210000          0.412735E-03
      0.215000          0.392182E-03
      0.220000          0.374361E-03
      0.225000          0.358781E-03
      0.230000          0.344987E-03
      0.235000          0.332591E-03
      0.240000          0.321294E-03
      0.245000          0.310888E-03
      0.250000          0.301254E-03
      0.255000          0.292350E-03
      0.260000          0.284187E-03
      0.265000          0.276809E-03
      0.270000          0.270266E-03
      0.275000          0.264593E-03
      0.280000          0.259790E-03
      0.285000          0.255812E-03
      0.290000          0.252562E-03
      0.295000          0.249893E-03
      0.300000          0.247615E-03
      0.305000          0.245505E-03
      0.310000          0.243326E-03
      0.315000          0.240843E-03
      0.320000          0.237838E-03
      0.325000          0.234132E-03
      0.330000          0.229591E-03
      0.335000          0.224138E-03
      0.340000          0.217760E-03
      0.345000          0.210501E-03
      0.350000          0.202466E-03
      0.355000          0.193807E-03
      0.360000          0.184711E-03
      0.365000          0.175390E-03
      0.370000          0.166067E-03
      0.375000          0.156956E-03
      0.380000          0.148257E-03
      0.385000          0.140139E-03
      0.390000          0.132735E-03
      0.395000          0.126134E-03
      0.400000          0.120383E-03
      0.405000          0.115484E-03
      0.410000          0.111399E-03
      0.415000          0.108056E-03
      0.420000          0.105357E-03
      0.425000          0.103186E-03
      0.430000          0.101417E-03
      0.435000          0.999250E-04
      0.440000          0.985934E-04
      0.445000          0.973186E-04
      0.450000          0.960169E-04
      0.455000          0.946268E-04
      0.460000          0.931110E-04
      0.465000          0.914553E-04
      0.470000          0.896672E-04
      0.475000          0.877723E-04
      0.480000          0.858105E-04
      0.485000          0.838313E-04
      0.490000          0.818886E-04
      0.495000          0.800366E-04
      0.500000          0.783255E-04
