 I_abs(s)[cm^-1]/c[mg/ml]
       0.00000          0.147386E-01
      0.500000E-02      0.146725E-01
      0.100000E-01      0.144761E-01
      0.150000E-01      0.141549E-01
      0.200000E-01      0.137178E-01
      0.250000E-01      0.131766E-01
      0.300000E-01      0.125457E-01
      0.350000E-01      0.118411E-01
      0.400000E-01      0.110804E-01
      0.450000E-01      0.102814E-01
      0.500000E-01      0.946160E-02
      0.550000E-01      0.863795E-02
      0.600000E-01      0.782582E-02
      0.650000E-01      0.703880E-02
      0.700000E-01      0.628827E-02
      0.750000E-01      0.558325E-02
      0.800000E-01      0.493032E-02
      0.850000E-01      0.433364E-02
      0.900000E-01      0.379514E-02
      0.950000E-01      0.331475E-02
      0.100000          0.289072E-02
      0.105000          0.251998E-02
      0.110000          0.219846E-02
      0.115000          0.192150E-02
      0.120000          0.168417E-02
      0.125000          0.148151E-02
      0.130000          0.130882E-02
      0.135000          0.116175E-02
      0.140000          0.103649E-02
      0.145000          0.929760E-03
      0.150000          0.838815E-03
      0.155000          0.761420E-03
      0.160000          0.695765E-03
      0.165000          0.640382E-03
      0.170000          0.594051E-03
      0.175000          0.555719E-03
      0.180000          0.524419E-03
      0.185000          0.499218E-03
      0.190000          0.479185E-03
      0.195000          0.463371E-03
      0.200000          0.450819E-03
      0.205000          0.440581E-03
      0.210000          0.431749E-03
      0.215000          0.423492E-03
      0.220000          0.415087E-03
      0.225000          0.405952E-03
      0.230000          0.395668E-03
      0.235000          0.383987E-03
      0.240000          0.370833E-03
      0.245000          0.356289E-03
      0.250000          0.340572E-03
      0.255000          0.324007E-03
      0.260000          0.306984E-03
      0.265000          0.289929E-03
      0.270000          0.273261E-03
      0.275000          0.257364E-03
      0.280000          0.242557E-03
      0.285000          0.229081E-03
      0.290000          0.217084E-03
      0.295000          0.206624E-03
      0.300000          0.197669E-03
      0.305000          0.190114E-03
      0.310000          0.183794E-03
      0.315000          0.178505E-03
      0.320000          0.174020E-03
      0.325000          0.170112E-03
      0.330000          0.166567E-03
      0.335000          0.163200E-03
      0.340000          0.159858E-03
      0.345000          0.156434E-03
      0.350000          0.152857E-03
      0.355000          0.149099E-03
      0.360000          0.145165E-03
      0.365000          0.141086E-03
      0.370000          0.136912E-03
      0.375000          0.132706E-03
      0.380000          0.128531E-03
      0.385000          0.124450E-03
      0.390000          0.120519E-03
      0.395000          0.116781E-03
      0.400000          0.113271E-03
      0.405000          0.110007E-03
      0.410000          0.107000E-03
      0.415000          0.104250E-03
      0.420000          0.101753E-03
      0.425000          0.994952E-04
      0.430000          0.974652E-04
      0.435000          0.956487E-04
      0.440000          0.940321E-04
      0.445000          0.926029E-04
      0.450000          0.913498E-04
      0.455000          0.902623E-04
      0.460000          0.893302E-04
      0.465000          0.885432E-04
      0.470000          0.878896E-04
      0.475000          0.873565E-04
      0.480000          0.869290E-04
      0.485000          0.865905E-04
      0.490000          0.863227E-04
      0.495000          0.861062E-04
      0.500000          0.859208E-04
