 I_abs(s)[cm^-1]/c[mg/ml]
       0.00000          0.145000E-01
      0.500000E-02      0.144343E-01
      0.100000E-01      0.142391E-01
      0.150000E-01      0.139197E-01
      0.200000E-01      0.134848E-01
      0.250000E-01      0.129459E-01
      0.300000E-01      0.123171E-01
      0.350000E-01      0.116145E-01
      0.400000E-01      0.108553E-01
      0.450000E-01      0.100574E-01
      0.500000E-01      0.923860E-02
      0.550000E-01      0.841619E-02
      0.600000E-01      0.760608E-02
      0.650000E-01      0.682250E-02
      0.700000E-01      0.607760E-02
      0.750000E-01      0.538117E-02
      0.800000E-01      0.474051E-02
      0.850000E-01      0.416041E-02
      0.900000E-01      0.364323E-02
      0.950000E-01      0.318908E-02
      0.100000          0.279612E-02
      0.105000          0.246087E-02
      0.110000          0.217854E-02
      0.115000          0.194346E-02
      0.120000          0.174944E-02
      0.125000          0.159009E-02
      0.130000          0.145916E-02
      0.135000          0.135077E-02
      0.140000          0.125964E-02
      0.145000          0.118118E-02
      0.150000          0.111159E-02
      0.155000          0.104791E-02
      0.160000          0.987922E-03
      0.165000          0.930134E-03
      0.170000          0.873666E-03
      0.175000          0.818138E-03
      0.180000          0.763548E-03
      0.185000          0.710153E-03
      0.190000          0.658357E-03
      0.195000          0.608624E-03
      0.200000          0.561395E-03
      0.205000          0.517038E-03
      0.210000          0.475814E-03
      0.215000          0.437861E-03
      0.220000          0.403196E-03
      0.225000          0.371728E-03
      0.230000          0.343281E-03
      0.235000          0.317620E-03
      0.240000          0.294475E-03
      0.245000          0.273574E-03
      0.250000          0.254655E-03
      0.255000          0.237487E-03
      0.260000          0.221880E-03
      0.265000          0.207685E-03
      0.270000          0.194792E-03
      0.275000          0.183128E-03
      0.280000          0.172644E-03
      0.285000          0.163305E-03
      0.290000          0.155084E-03
      0.295000          0.147949E-03
      0.300000          0.141857E-03
      0.305000          0.136754E-03
      0.310000          0.132568E-03
      0.315000          0.129212E-03
      0.320000          0.126590E-03
      0.325000          0.124598E-03
      0.330000          0.123131E-03
      0.335000          0.122091E-03
      0.340000          0.121386E-03
      0.345000          0.120941E-03
      0.350000          0.120695E-03
      0.355000          0.120603E-03
      0.360000          0.120637E-03
      0.365000          0.120784E-03
      0.370000          0.121038E-03
      0.375000          0.121400E-03
      0.380000          0.121875E-03
      0.385000          0.122464E-03
      0.390000          0.123160E-03
      0.395000          0.123951E-03
      0.400000          0.124813E-03
      0.405000          0.125712E-03
      0.410000          0.126604E-03
      0.415000          0.127439E-03
      0.420000          0.128160E-03
      0.425000          0.128709E-03
      0.430000          0.129032E-03
      0.435000          0.129079E-03
      0.440000          0.128809E-03
      0.445000          0.128193E-03
      0.450000          0.127215E-03
      0.455000          0.125875E-03
      0.460000          0.124186E-03
      0.465000          0.122176E-03
      0.470000          0.119883E-03
      0.475000          0.117358E-03
      0.480000          0.114656E-03
      0.485000          0.111838E-03
      0.490000          0.108966E-03
      0.495000          0.106100E-03
      0.500000          0.103293E-03
