 I_abs(s)[cm^-1]/c[mg/ml]
       0.00000          0.134583E-01
      0.500000E-02      0.133492E-01
      0.100000E-01      0.130284E-01
      0.150000E-01      0.125145E-01
      0.200000E-01      0.118364E-01
      0.250000E-01      0.110313E-01
      0.300000E-01      0.101411E-01
      0.350000E-01      0.920911E-02
      0.400000E-01      0.827659E-02
      0.450000E-01      0.737986E-02
      0.500000E-01      0.654794E-02
      0.550000E-01      0.580117E-02
      0.600000E-01      0.515066E-02
      0.650000E-01      0.459875E-02
      0.700000E-01      0.414019E-02
      0.750000E-01      0.376396E-02
      0.800000E-01      0.345534E-02
      0.850000E-01      0.319808E-02
      0.900000E-01      0.297638E-02
      0.950000E-01      0.277648E-02
      0.100000          0.258772E-02
      0.105000          0.240310E-02
      0.110000          0.221924E-02
      0.115000          0.203590E-02
      0.120000          0.185521E-02
      0.125000          0.168073E-02
      0.130000          0.151651E-02
      0.135000          0.136621E-02
      0.140000          0.123254E-02
      0.145000          0.111688E-02
      0.150000          0.101919E-02
      0.155000          0.938187E-03
      0.160000          0.871643E-03
      0.165000          0.816804E-03
      0.170000          0.770813E-03
      0.175000          0.731067E-03
      0.180000          0.695478E-03
      0.185000          0.662597E-03
      0.190000          0.631618E-03
      0.195000          0.602274E-03
      0.200000          0.574658E-03
      0.205000          0.549031E-03
      0.210000          0.525637E-03
      0.215000          0.504562E-03
      0.220000          0.485662E-03
      0.225000          0.468559E-03
      0.230000          0.452699E-03
      0.235000          0.437442E-03
      0.240000          0.422184E-03
      0.245000          0.406455E-03
      0.250000          0.389997E-03
      0.255000          0.372799E-03
      0.260000          0.355089E-03
      0.265000          0.337274E-03
      0.270000          0.319868E-03
      0.275000          0.303388E-03
      0.280000          0.288271E-03
      0.285000          0.274797E-03
      0.290000          0.263055E-03
      0.295000          0.252928E-03
      0.300000          0.244130E-03
      0.305000          0.236251E-03
      0.310000          0.228833E-03
      0.315000          0.221442E-03
      0.320000          0.213729E-03
      0.325000          0.205481E-03
      0.330000          0.196642E-03
      0.335000          0.187307E-03
      0.340000          0.177702E-03
      0.345000          0.168138E-03
      0.350000          0.158958E-03
      0.355000          0.150489E-03
      0.360000          0.142995E-03
      0.365000          0.136646E-03
      0.370000          0.131499E-03
      0.375000          0.127504E-03
      0.380000          0.124516E-03
      0.385000          0.122324E-03
      0.390000          0.120680E-03
      0.395000          0.119335E-03
      0.400000          0.118067E-03
      0.405000          0.116701E-03
      0.410000          0.115124E-03
      0.415000          0.113284E-03
      0.420000          0.111188E-03
      0.425000          0.108889E-03
      0.430000          0.106466E-03
      0.435000          0.104014E-03
      0.440000          0.101620E-03
      0.445000          0.993588E-04
      0.450000          0.972777E-04
      0.455000          0.953979E-04
      0.460000          0.937136E-04
      0.465000          0.921970E-04
      0.470000          0.908052E-04
      0.475000          0.894879E-04
      0.480000          0.881955E-04
      0.485000          0.868853E-04
      0.490000          0.855264E-04
      0.495000          0.841019E-04
      0.500000          0.826091E-04
