 I_abs(s)[cm^-1]/c[mg/ml]
       0.00000          0.142320E-01
      0.500000E-02      0.141593E-01
      0.100000E-01      0.139436E-01
      0.150000E-01      0.135920E-01
      0.200000E-01      0.131158E-01
      0.250000E-01      0.125304E-01
      0.300000E-01      0.118537E-01
      0.350000E-01      0.111060E-01
      0.400000E-01      0.103086E-01
      0.450000E-01      0.948272E-02
      0.500000E-01      0.864905E-02
      0.550000E-01      0.782646E-02
      0.600000E-01      0.703150E-02
      0.650000E-01      0.627787E-02
      0.700000E-01      0.557612E-02
      0.750000E-01      0.493352E-02
      0.800000E-01      0.435413E-02
      0.850000E-01      0.383909E-02
      0.900000E-01      0.338696E-02
      0.950000E-01      0.299422E-02
      0.100000          0.265580E-02
      0.105000          0.236564E-02
      0.110000          0.211717E-02
      0.115000          0.190385E-02
      0.120000          0.171949E-02
      0.125000          0.155855E-02
      0.130000          0.141634E-02
      0.135000          0.128911E-02
      0.140000          0.117401E-02
      0.145000          0.106905E-02
      0.150000          0.972957E-03
      0.155000          0.885013E-03
      0.160000          0.804874E-03
      0.165000          0.732413E-03
      0.170000          0.667570E-03
      0.175000          0.610240E-03
      0.180000          0.560193E-03
      0.185000          0.517041E-03
      0.190000          0.480227E-03
      0.195000          0.449054E-03
      0.200000          0.422729E-03
      0.205000          0.400416E-03
      0.210000          0.381299E-03
      0.215000          0.364628E-03
      0.220000          0.349766E-03
      0.225000          0.336212E-03
      0.230000          0.323612E-03
      0.235000          0.311755E-03
      0.240000          0.300551E-03
      0.245000          0.290003E-03
      0.250000          0.280176E-03
      0.255000          0.271159E-03
      0.260000          0.263034E-03
      0.265000          0.255854E-03
      0.270000          0.249620E-03
      0.275000          0.244281E-03
      0.280000          0.239728E-03
      0.285000          0.235805E-03
      0.290000          0.232326E-03
      0.295000          0.229088E-03
      0.300000          0.225892E-03
      0.305000          0.222562E-03
      0.310000          0.218953E-03
      0.315000          0.214966E-03
      0.320000          0.210551E-03
      0.325000          0.205704E-03
      0.330000          0.200464E-03
      0.335000          0.194904E-03
      0.340000          0.189122E-03
      0.345000          0.183226E-03
      0.350000          0.177327E-03
      0.355000          0.171528E-03
      0.360000          0.165915E-03
      0.365000          0.160555E-03
      0.370000          0.155491E-03
      0.375000          0.150745E-03
      0.380000          0.146319E-03
      0.385000          0.142201E-03
      0.390000          0.138363E-03
      0.395000          0.134776E-03
      0.400000          0.131403E-03
      0.405000          0.128214E-03
      0.410000          0.125180E-03
      0.415000          0.122277E-03
      0.420000          0.119489E-03
      0.425000          0.116807E-03
      0.430000          0.114226E-03
      0.435000          0.111748E-03
      0.440000          0.109376E-03
      0.445000          0.107117E-03
      0.450000          0.104981E-03
      0.455000          0.102975E-03
      0.460000          0.101110E-03
      0.465000          0.993931E-04
      0.470000          0.978333E-04
      0.475000          0.964370E-04
      0.480000          0.952086E-04
      0.485000          0.941505E-04
      0.490000          0.932616E-04
      0.495000          0.925368E-04
      0.500000          0.919668E-04
