 I_abs(s)[cm^-1]/c[mg/ml]
       0.00000          0.135500E-01
      0.500000E-02      0.134481E-01
      0.100000E-01      0.131480E-01
      0.150000E-01      0.126657E-01
      0.200000E-01      0.120261E-01
      0.250000E-01      0.112614E-01
      0.300000E-01      0.104082E-01
      0.350000E-01      0.950462E-02
      0.400000E-01      0.858760E-02
      0.450000E-01      0.769047E-02
      0.500000E-01      0.684093E-02
      0.550000E-01      0.605985E-02
      0.600000E-01      0.536074E-02
      0.650000E-01      0.474987E-02
      0.700000E-01      0.422706E-02
      0.750000E-01      0.378693E-02
      0.800000E-01      0.342027E-02
      0.850000E-01      0.311565E-02
      0.900000E-01      0.286082E-02
      0.950000E-01      0.264395E-02
      0.100000          0.245452E-02
      0.105000          0.228389E-02
      0.110000          0.212559E-02
      0.115000          0.197527E-02
      0.120000          0.183050E-02
      0.125000          0.169039E-02
      0.130000          0.155518E-02
      0.135000          0.142582E-02
      0.140000          0.130361E-02
      0.145000          0.118989E-02
      0.150000          0.108579E-02
      0.155000          0.992126E-03
      0.160000          0.909268E-03
      0.165000          0.837148E-03
      0.170000          0.775271E-03
      0.175000          0.722768E-03
      0.180000          0.678479E-03
      0.185000          0.641054E-03
      0.190000          0.609053E-03
      0.195000          0.581065E-03
      0.200000          0.555805E-03
      0.205000          0.532201E-03
      0.210000          0.509455E-03
      0.215000          0.487067E-03
      0.220000          0.464835E-03
      0.225000          0.442812E-03
      0.230000          0.421243E-03
      0.235000          0.400488E-03
      0.240000          0.380929E-03
      0.245000          0.362898E-03
      0.250000          0.346616E-03
      0.255000          0.332156E-03
      0.260000          0.319438E-03
      0.265000          0.308244E-03
      0.270000          0.298258E-03
      0.275000          0.289116E-03
      0.280000          0.280455E-03
      0.285000          0.271963E-03
      0.290000          0.263408E-03
      0.295000          0.254660E-03
      0.300000          0.245686E-03
      0.305000          0.236540E-03
      0.310000          0.227338E-03
      0.315000          0.218227E-03
      0.320000          0.209360E-03
      0.325000          0.200872E-03
      0.330000          0.192861E-03
      0.335000          0.185385E-03
      0.340000          0.178458E-03
      0.345000          0.172061E-03
      0.350000          0.166147E-03
      0.355000          0.160656E-03
      0.360000          0.155523E-03
      0.365000          0.150688E-03
      0.370000          0.146101E-03
      0.375000          0.141724E-03
      0.380000          0.137537E-03
      0.385000          0.133528E-03
      0.390000          0.129701E-03
      0.395000          0.126065E-03
      0.400000          0.122637E-03
      0.405000          0.119434E-03
      0.410000          0.116474E-03
      0.415000          0.113770E-03
      0.420000          0.111326E-03
      0.425000          0.109138E-03
      0.430000          0.107190E-03
      0.435000          0.105453E-03
      0.440000          0.103890E-03
      0.445000          0.102456E-03
      0.450000          0.101101E-03
      0.455000          0.997762E-04
      0.460000          0.984364E-04
      0.465000          0.970456E-04
      0.470000          0.955782E-04
      0.475000          0.940206E-04
      0.480000          0.923707E-04
      0.485000          0.906367E-04
      0.490000          0.888340E-04
      0.495000          0.869835E-04
      0.500000          0.851078E-04
