 I_abs(s)[cm^-1]/c[mg/ml]
       0.00000          0.142713E-01
      0.500000E-02      0.141974E-01
      0.100000E-01      0.139781E-01
      0.150000E-01      0.136207E-01
      0.200000E-01      0.131369E-01
      0.250000E-01      0.125422E-01
      0.300000E-01      0.118550E-01
      0.350000E-01      0.110959E-01
      0.400000E-01      0.102865E-01
      0.450000E-01      0.944822E-02
      0.500000E-01      0.860187E-02
      0.550000E-01      0.776634E-02
      0.600000E-01      0.695816E-02
      0.650000E-01      0.619096E-02
      0.700000E-01      0.547521E-02
      0.750000E-01      0.481814E-02
      0.800000E-01      0.422391E-02
      0.850000E-01      0.369381E-02
      0.900000E-01      0.322675E-02
      0.950000E-01      0.281968E-02
      0.100000          0.246816E-02
      0.105000          0.216682E-02
      0.110000          0.190988E-02
      0.115000          0.169153E-02
      0.120000          0.150625E-02
      0.125000          0.134903E-02
      0.130000          0.121548E-02
      0.135000          0.110191E-02
      0.140000          0.100525E-02
      0.145000          0.923020E-03
      0.150000          0.853188E-03
      0.155000          0.794066E-03
      0.160000          0.744200E-03
      0.165000          0.702272E-03
      0.170000          0.667041E-03
      0.175000          0.637309E-03
      0.180000          0.611913E-03
      0.185000          0.589745E-03
      0.190000          0.569785E-03
      0.195000          0.551140E-03
      0.200000          0.533082E-03
      0.205000          0.515078E-03
      0.210000          0.496801E-03
      0.215000          0.478126E-03
      0.220000          0.459110E-03
      0.225000          0.439956E-03
      0.230000          0.420962E-03
      0.235000          0.402475E-03
      0.240000          0.384833E-03
      0.245000          0.368324E-03
      0.250000          0.353146E-03
      0.255000          0.339393E-03
      0.260000          0.327041E-03
      0.265000          0.315960E-03
      0.270000          0.305932E-03
      0.275000          0.296680E-03
      0.280000          0.287905E-03
      0.285000          0.279312E-03
      0.290000          0.270648E-03
      0.295000          0.261724E-03
      0.300000          0.252430E-03
      0.305000          0.242741E-03
      0.310000          0.232712E-03
      0.315000          0.222469E-03
      0.320000          0.212187E-03
      0.325000          0.202071E-03
      0.330000          0.192329E-03
      0.335000          0.183157E-03
      0.340000          0.174712E-03
      0.345000          0.167109E-03
      0.350000          0.160409E-03
      0.355000          0.154617E-03
      0.360000          0.149693E-03
      0.365000          0.145556E-03
      0.370000          0.142097E-03
      0.375000          0.139193E-03
      0.380000          0.136718E-03
      0.385000          0.134556E-03
      0.390000          0.132605E-03
      0.395000          0.130786E-03
      0.400000          0.129043E-03
      0.405000          0.127341E-03
      0.410000          0.125662E-03
      0.415000          0.124002E-03
      0.420000          0.122361E-03
      0.425000          0.120743E-03
      0.430000          0.119147E-03
      0.435000          0.117567E-03
      0.440000          0.115988E-03
      0.445000          0.114390E-03
      0.450000          0.112746E-03
      0.455000          0.111029E-03
      0.460000          0.109214E-03
      0.465000          0.107280E-03
      0.470000          0.105217E-03
      0.475000          0.103023E-03
      0.480000          0.100709E-03
      0.485000          0.982982E-04
      0.490000          0.958207E-04
      0.495000          0.933152E-04
      0.500000          0.908233E-04
