 I_abs(s)[cm^-1]/c[mg/ml]
       0.00000          0.140677E-01
      0.500000E-02      0.140124E-01
      0.100000E-01      0.138478E-01
      0.150000E-01      0.135775E-01
      0.200000E-01      0.132078E-01
      0.250000E-01      0.127469E-01
      0.300000E-01      0.122049E-01
      0.350000E-01      0.115936E-01
      0.400000E-01      0.109258E-01
      0.450000E-01      0.102151E-01
      0.500000E-01      0.947549E-02
      0.550000E-01      0.872070E-02
      0.600000E-01      0.796412E-02
      0.650000E-01      0.721823E-02
      0.700000E-01      0.649433E-02
      0.750000E-01      0.580229E-02
      0.800000E-01      0.515036E-02
      0.850000E-01      0.454502E-02
      0.900000E-01      0.399095E-02
      0.950000E-01      0.349103E-02
      0.100000          0.304643E-02
      0.105000          0.265672E-02
      0.110000          0.232006E-02
      0.115000          0.203343E-02
      0.120000          0.179283E-02
      0.125000          0.159358E-02
      0.130000          0.143053E-02
      0.135000          0.129833E-02
      0.140000          0.119163E-02
      0.145000          0.110529E-02
      0.150000          0.103457E-02
      0.155000          0.975189E-03
      0.160000          0.923493E-03
      0.165000          0.876456E-03
      0.170000          0.831719E-03
      0.175000          0.787568E-03
      0.180000          0.742896E-03
      0.185000          0.697135E-03
      0.190000          0.650177E-03
      0.195000          0.602283E-03
      0.200000          0.553989E-03
      0.205000          0.506010E-03
      0.210000          0.459155E-03
      0.215000          0.414247E-03
      0.220000          0.372056E-03
      0.225000          0.333247E-03
      0.230000          0.298344E-03
      0.235000          0.267706E-03
      0.240000          0.241517E-03
      0.245000          0.219791E-03
      0.250000          0.202385E-03
      0.255000          0.189019E-03
      0.260000          0.179303E-03
      0.265000          0.172769E-03
      0.270000          0.168897E-03
      0.275000          0.167149E-03
      0.280000          0.166995E-03
      0.285000          0.167933E-03
      0.290000          0.169511E-03
      0.295000          0.171338E-03
      0.300000          0.173091E-03
      0.305000          0.174521E-03
      0.310000          0.175450E-03
      0.315000          0.175768E-03
      0.320000          0.175423E-03
      0.325000          0.174414E-03
      0.330000          0.172779E-03
      0.335000          0.170587E-03
      0.340000          0.167925E-03
      0.345000          0.164890E-03
      0.350000          0.161581E-03
      0.355000          0.158094E-03
      0.360000          0.154516E-03
      0.365000          0.150921E-03
      0.370000          0.147369E-03
      0.375000          0.143909E-03
      0.380000          0.140574E-03
      0.385000          0.137387E-03
      0.390000          0.134362E-03
      0.395000          0.131502E-03
      0.400000          0.128810E-03
      0.405000          0.126280E-03
      0.410000          0.123908E-03
      0.415000          0.121687E-03
      0.420000          0.119612E-03
      0.425000          0.117676E-03
      0.430000          0.115874E-03
      0.435000          0.114201E-03
      0.440000          0.112651E-03
      0.445000          0.111218E-03
      0.450000          0.109892E-03
      0.455000          0.108664E-03
      0.460000          0.107520E-03
      0.465000          0.106446E-03
      0.470000          0.105423E-03
      0.475000          0.104431E-03
      0.480000          0.103450E-03
      0.485000          0.102455E-03
      0.490000          0.101424E-03
      0.495000          0.100336E-03
      0.500000          0.991711E-04
