 I_abs(s)[cm^-1]/c[mg/ml]
       0.00000          0.134430E-01
      0.500000E-02      0.133604E-01
      0.100000E-01      0.131162E-01
      0.150000E-01      0.127204E-01
      0.200000E-01      0.121891E-01
      0.250000E-01      0.115434E-01
      0.300000E-01      0.108079E-01
      0.350000E-01      0.100091E-01
      0.400000E-01      0.917402E-02
      0.450000E-01      0.832842E-02
      0.500000E-01      0.749577E-02
      0.550000E-01      0.669609E-02
      0.600000E-01      0.594529E-02
      0.650000E-01      0.525484E-02
      0.700000E-01      0.463182E-02
      0.750000E-01      0.407920E-02
      0.800000E-01      0.359641E-02
      0.850000E-01      0.318002E-02
      0.900000E-01      0.282453E-02
      0.950000E-01      0.252314E-02
      0.100000          0.226843E-02
      0.105000          0.205298E-02
      0.110000          0.186982E-02
      0.115000          0.171273E-02
      0.120000          0.157643E-02
      0.125000          0.145665E-02
      0.130000          0.135004E-02
      0.135000          0.125415E-02
      0.140000          0.116718E-02
      0.145000          0.108794E-02
      0.150000          0.101559E-02
      0.155000          0.949561E-03
      0.160000          0.889430E-03
      0.165000          0.834815E-03
      0.170000          0.785318E-03
      0.175000          0.740496E-03
      0.180000          0.699838E-03
      0.185000          0.662777E-03
      0.190000          0.628706E-03
      0.195000          0.597016E-03
      0.200000          0.567132E-03
      0.205000          0.538549E-03
      0.210000          0.510873E-03
      0.215000          0.483846E-03
      0.220000          0.457356E-03
      0.225000          0.431440E-03
      0.230000          0.406263E-03
      0.235000          0.382087E-03
      0.240000          0.359232E-03
      0.245000          0.338022E-03
      0.250000          0.318739E-03
      0.255000          0.301585E-03
      0.260000          0.286648E-03
      0.265000          0.273887E-03
      0.270000          0.263137E-03
      0.275000          0.254127E-03
      0.280000          0.246507E-03
      0.285000          0.239890E-03
      0.290000          0.233894E-03
      0.295000          0.228179E-03
      0.300000          0.222477E-03
      0.305000          0.216613E-03
      0.310000          0.210508E-03
      0.315000          0.204177E-03
      0.320000          0.197707E-03
      0.325000          0.191235E-03
      0.330000          0.184923E-03
      0.335000          0.178924E-03
      0.340000          0.173370E-03
      0.345000          0.168347E-03
      0.350000          0.163894E-03
      0.355000          0.159999E-03
      0.360000          0.156610E-03
      0.365000          0.153642E-03
      0.370000          0.150991E-03
      0.375000          0.148549E-03
      0.380000          0.146216E-03
      0.385000          0.143904E-03
      0.390000          0.141547E-03
      0.395000          0.139098E-03
      0.400000          0.136532E-03
      0.405000          0.133838E-03
      0.410000          0.131021E-03
      0.415000          0.128091E-03
      0.420000          0.125068E-03
      0.425000          0.121971E-03
      0.430000          0.118824E-03
      0.435000          0.115650E-03
      0.440000          0.112475E-03
      0.445000          0.109322E-03
      0.450000          0.106217E-03
      0.455000          0.103182E-03
      0.460000          0.100239E-03
      0.465000          0.974056E-04
      0.470000          0.946969E-04
      0.475000          0.921244E-04
      0.480000          0.896962E-04
      0.485000          0.874183E-04
      0.490000          0.852949E-04
      0.495000          0.833303E-04
      0.500000          0.815287E-04
