 I_abs(s)[cm^-1]/c[mg/ml]
       0.00000          0.144130E-01
      0.500000E-02      0.143381E-01
      0.100000E-01      0.141156E-01
      0.150000E-01      0.137528E-01
      0.200000E-01      0.132614E-01
      0.250000E-01      0.126569E-01
      0.300000E-01      0.119577E-01
      0.350000E-01      0.111845E-01
      0.400000E-01      0.103594E-01
      0.450000E-01      0.950427E-02
      0.500000E-01      0.864060E-02
      0.550000E-01      0.778815E-02
      0.600000E-01      0.696439E-02
      0.650000E-01      0.618395E-02
      0.700000E-01      0.545828E-02
      0.750000E-01      0.479544E-02
      0.800000E-01      0.420022E-02
      0.850000E-01      0.367427E-02
      0.900000E-01      0.321651E-02
      0.950000E-01      0.282355E-02
      0.100000          0.249020E-02
      0.105000          0.221006E-02
      0.110000          0.197603E-02
      0.115000          0.178082E-02
      0.120000          0.161733E-02
      0.125000          0.147904E-02
      0.130000          0.136023E-02
      0.135000          0.125611E-02
      0.140000          0.116291E-02
      0.145000          0.107779E-02
      0.150000          0.998816E-03
      0.155000          0.924809E-03
      0.160000          0.855167E-03
      0.165000          0.789719E-03
      0.170000          0.728560E-03
      0.175000          0.671916E-03
      0.180000          0.620024E-03
      0.185000          0.573057E-03
      0.190000          0.531070E-03
      0.195000          0.493975E-03
      0.200000          0.461547E-03
      0.205000          0.433439E-03
      0.210000          0.409215E-03
      0.215000          0.388386E-03
      0.220000          0.370445E-03
      0.225000          0.354899E-03
      0.230000          0.341295E-03
      0.235000          0.329231E-03
      0.240000          0.318372E-03
      0.245000          0.308445E-03
      0.250000          0.299234E-03
      0.255000          0.290575E-03
      0.260000          0.282341E-03
      0.265000          0.274437E-03
      0.270000          0.266786E-03
      0.275000          0.259324E-03
      0.280000          0.251997E-03
      0.285000          0.244759E-03
      0.290000          0.237574E-03
      0.295000          0.230414E-03
      0.300000          0.223263E-03
      0.305000          0.216122E-03
      0.310000          0.209005E-03
      0.315000          0.201941E-03
      0.320000          0.194974E-03
      0.325000          0.188158E-03
      0.330000          0.181551E-03
      0.335000          0.175215E-03
      0.340000          0.169209E-03
      0.345000          0.163584E-03
      0.350000          0.158377E-03
      0.355000          0.153615E-03
      0.360000          0.149305E-03
      0.365000          0.145443E-03
      0.370000          0.142005E-03
      0.375000          0.138956E-03
      0.380000          0.136253E-03
      0.385000          0.133841E-03
      0.390000          0.131665E-03
      0.395000          0.129669E-03
      0.400000          0.127799E-03
      0.405000          0.126007E-03
      0.410000          0.124254E-03
      0.415000          0.122507E-03
      0.420000          0.120746E-03
      0.425000          0.118958E-03
      0.430000          0.117140E-03
      0.435000          0.115300E-03
      0.440000          0.113449E-03
      0.445000          0.111606E-03
      0.450000          0.109791E-03
      0.455000          0.108026E-03
      0.460000          0.106333E-03
      0.465000          0.104729E-03
      0.470000          0.103228E-03
      0.475000          0.101838E-03
      0.480000          0.100561E-03
      0.485000          0.993916E-04
      0.490000          0.983183E-04
      0.495000          0.973242E-04
      0.500000          0.963878E-04
