 I_abs(s)[cm^-1]/c[mg/ml]
       0.00000          0.137189E-01
      0.500000E-02      0.136386E-01
      0.100000E-01      0.134009E-01
      0.150000E-01      0.130152E-01
      0.200000E-01      0.124963E-01
      0.250000E-01      0.118640E-01
      0.300000E-01      0.111414E-01
      0.350000E-01      0.103535E-01
      0.400000E-01      0.952649E-02
      0.450000E-01      0.868543E-02
      0.500000E-01      0.785363E-02
      0.550000E-01      0.705139E-02
      0.600000E-01      0.629526E-02
      0.650000E-01      0.559762E-02
      0.700000E-01      0.496656E-02
      0.750000E-01      0.440597E-02
      0.800000E-01      0.391605E-02
      0.850000E-01      0.349384E-02
      0.900000E-01      0.313397E-02
      0.950000E-01      0.282946E-02
      0.100000          0.257243E-02
      0.105000          0.235481E-02
      0.110000          0.216891E-02
      0.115000          0.200780E-02
      0.120000          0.186566E-02
      0.125000          0.173779E-02
      0.130000          0.162071E-02
      0.135000          0.151198E-02
      0.140000          0.141004E-02
      0.145000          0.131401E-02
      0.150000          0.122348E-02
      0.155000          0.113829E-02
      0.160000          0.105839E-02
      0.165000          0.983732E-03
      0.170000          0.914174E-03
      0.175000          0.849498E-03
      0.180000          0.789398E-03
      0.185000          0.733519E-03
      0.190000          0.681502E-03
      0.195000          0.633027E-03
      0.200000          0.587841E-03
      0.205000          0.545782E-03
      0.210000          0.506773E-03
      0.215000          0.470812E-03
      0.220000          0.437944E-03
      0.225000          0.408225E-03
      0.230000          0.381691E-03
      0.235000          0.358323E-03
      0.240000          0.338029E-03
      0.245000          0.320633E-03
      0.250000          0.305870E-03
      0.255000          0.293404E-03
      0.260000          0.282848E-03
      0.265000          0.273786E-03
      0.270000          0.265809E-03
      0.275000          0.258536E-03
      0.280000          0.251645E-03
      0.285000          0.244883E-03
      0.290000          0.238081E-03
      0.295000          0.231151E-03
      0.300000          0.224084E-03
      0.305000          0.216936E-03
      0.310000          0.209810E-03
      0.315000          0.202839E-03
      0.320000          0.196168E-03
      0.325000          0.189930E-03
      0.330000          0.184240E-03
      0.335000          0.179176E-03
      0.340000          0.174778E-03
      0.345000          0.171040E-03
      0.350000          0.167919E-03
      0.355000          0.165335E-03
      0.360000          0.163179E-03
      0.365000          0.161324E-03
      0.370000          0.159638E-03
      0.375000          0.157985E-03
      0.380000          0.156245E-03
      0.385000          0.154313E-03
      0.390000          0.152109E-03
      0.395000          0.149581E-03
      0.400000          0.146705E-03
      0.405000          0.143484E-03
      0.410000          0.139948E-03
      0.415000          0.136151E-03
      0.420000          0.132161E-03
      0.425000          0.128059E-03
      0.430000          0.123932E-03
      0.435000          0.119867E-03
      0.440000          0.115947E-03
      0.445000          0.112245E-03
      0.450000          0.108821E-03
      0.455000          0.105718E-03
      0.460000          0.102962E-03
      0.465000          0.100563E-03
      0.470000          0.985123E-04
      0.475000          0.967841E-04
      0.480000          0.953406E-04
      0.485000          0.941329E-04
      0.490000          0.931050E-04
      0.495000          0.921969E-04
      0.500000          0.913490E-04
