 I_abs(s)[cm^-1]/c[mg/ml]
       0.00000          0.135576E-01
      0.500000E-02      0.134659E-01
      0.100000E-01      0.131951E-01
      0.150000E-01      0.127573E-01
      0.200000E-01      0.121723E-01
      0.250000E-01      0.114654E-01
      0.300000E-01      0.106661E-01
      0.350000E-01      0.980603E-02
      0.400000E-01      0.891682E-02
      0.450000E-01      0.802837E-02
      0.500000E-01      0.716712E-02
      0.550000E-01      0.635485E-02
      0.600000E-01      0.560792E-02
      0.650000E-01      0.493694E-02
      0.700000E-01      0.434701E-02
      0.750000E-01      0.383824E-02
      0.800000E-01      0.340664E-02
      0.850000E-01      0.304519E-02
      0.900000E-01      0.274490E-02
      0.950000E-01      0.249594E-02
      0.100000          0.228854E-02
      0.105000          0.211372E-02
      0.110000          0.196377E-02
      0.115000          0.183249E-02
      0.120000          0.171524E-02
      0.125000          0.160875E-02
      0.130000          0.151090E-02
      0.135000          0.142037E-02
      0.140000          0.133631E-02
      0.145000          0.125810E-02
      0.150000          0.118512E-02
      0.155000          0.111664E-02
      0.160000          0.105182E-02
      0.165000          0.989729E-03
      0.170000          0.929457E-03
      0.175000          0.870233E-03
      0.180000          0.811528E-03
      0.185000          0.753137E-03
      0.190000          0.695215E-03
      0.195000          0.638259E-03
      0.200000          0.583047E-03
      0.205000          0.530533E-03
      0.210000          0.481730E-03
      0.215000          0.437573E-03
      0.220000          0.398816E-03
      0.225000          0.365933E-03
      0.230000          0.339072E-03
      0.235000          0.318042E-03
      0.240000          0.302343E-03
      0.245000          0.291219E-03
      0.250000          0.283747E-03
      0.255000          0.278923E-03
      0.260000          0.275759E-03
      0.265000          0.273358E-03
      0.270000          0.270977E-03
      0.275000          0.268065E-03
      0.280000          0.264275E-03
      0.285000          0.259454E-03
      0.290000          0.253621E-03
      0.295000          0.246920E-03
      0.300000          0.239583E-03
      0.305000          0.231879E-03
      0.310000          0.224079E-03
      0.315000          0.216427E-03
      0.320000          0.209111E-03
      0.325000          0.202266E-03
      0.330000          0.195962E-03
      0.335000          0.190220E-03
      0.340000          0.185018E-03
      0.345000          0.180308E-03
      0.350000          0.176028E-03
      0.355000          0.172115E-03
      0.360000          0.168512E-03
      0.365000          0.165174E-03
      0.370000          0.162070E-03
      0.375000          0.159178E-03
      0.380000          0.156487E-03
      0.385000          0.153989E-03
      0.390000          0.151672E-03
      0.395000          0.149525E-03
      0.400000          0.147525E-03
      0.405000          0.145645E-03
      0.410000          0.143846E-03
      0.415000          0.142088E-03
      0.420000          0.140324E-03
      0.425000          0.138510E-03
      0.430000          0.136604E-03
      0.435000          0.134573E-03
      0.440000          0.132391E-03
      0.445000          0.130044E-03
      0.450000          0.127530E-03
      0.455000          0.124857E-03
      0.460000          0.122042E-03
      0.465000          0.119110E-03
      0.470000          0.116088E-03
      0.475000          0.113008E-03
      0.480000          0.109899E-03
      0.485000          0.106788E-03
      0.490000          0.103699E-03
      0.495000          0.100647E-03
      0.500000          0.976479E-04
