 I_abs(s)[cm^-1]/c[mg/ml]
       0.00000          0.137112E-01
      0.500000E-02      0.136246E-01
      0.100000E-01      0.133684E-01
      0.150000E-01      0.129528E-01
      0.200000E-01      0.123944E-01
      0.250000E-01      0.117150E-01
      0.300000E-01      0.109402E-01
      0.350000E-01      0.100978E-01
      0.400000E-01      0.921674E-02
      0.450000E-01      0.832495E-02
      0.500000E-01      0.744830E-02
      0.550000E-01      0.660931E-02
      0.600000E-01      0.582629E-02
      0.650000E-01      0.511279E-02
      0.700000E-01      0.447746E-02
      0.750000E-01      0.392411E-02
      0.800000E-01      0.345223E-02
      0.850000E-01      0.305761E-02
      0.900000E-01      0.273317E-02
      0.950000E-01      0.246986E-02
      0.100000          0.225755E-02
      0.105000          0.208587E-02
      0.110000          0.194491E-02
      0.115000          0.182580E-02
      0.120000          0.172106E-02
      0.125000          0.162481E-02
      0.130000          0.153282E-02
      0.135000          0.144240E-02
      0.140000          0.135222E-02
      0.145000          0.126202E-02
      0.150000          0.117236E-02
      0.155000          0.108427E-02
      0.160000          0.999038E-03
      0.165000          0.917944E-03
      0.170000          0.842128E-03
      0.175000          0.772466E-03
      0.180000          0.709515E-03
      0.185000          0.653500E-03
      0.190000          0.604340E-03
      0.195000          0.561689E-03
      0.200000          0.524997E-03
      0.205000          0.493572E-03
      0.210000          0.466637E-03
      0.215000          0.443388E-03
      0.220000          0.423035E-03
      0.225000          0.404837E-03
      0.230000          0.388131E-03
      0.235000          0.372356E-03
      0.240000          0.357058E-03
      0.245000          0.341906E-03
      0.250000          0.326690E-03
      0.255000          0.311322E-03
      0.260000          0.295821E-03
      0.265000          0.280305E-03
      0.270000          0.264966E-03
      0.275000          0.250049E-03
      0.280000          0.235822E-03
      0.285000          0.222547E-03
      0.290000          0.210455E-03
      0.295000          0.199724E-03
      0.300000          0.190457E-03
      0.305000          0.182678E-03
      0.310000          0.176328E-03
      0.315000          0.171272E-03
      0.320000          0.167316E-03
      0.325000          0.164227E-03
      0.330000          0.161750E-03
      0.335000          0.159639E-03
      0.340000          0.157671E-03
      0.345000          0.155666E-03
      0.350000          0.153495E-03
      0.355000          0.151083E-03
      0.360000          0.148409E-03
      0.365000          0.145498E-03
      0.370000          0.142404E-03
      0.375000          0.139204E-03
      0.380000          0.135978E-03
      0.385000          0.132802E-03
      0.390000          0.129736E-03
      0.395000          0.126822E-03
      0.400000          0.124083E-03
      0.405000          0.121522E-03
      0.410000          0.119132E-03
      0.415000          0.116902E-03
      0.420000          0.114819E-03
      0.425000          0.112881E-03
      0.430000          0.111093E-03
      0.435000          0.109469E-03
      0.440000          0.108034E-03
      0.445000          0.106816E-03
      0.450000          0.105841E-03
      0.455000          0.105125E-03
      0.460000          0.104671E-03
      0.465000          0.104465E-03
      0.470000          0.104471E-03
      0.475000          0.104634E-03
      0.480000          0.104884E-03
      0.485000          0.105140E-03
      0.490000          0.105317E-03
      0.495000          0.105337E-03
      0.500000          0.105136E-03
