 I_abs(s)[cm^-1]/c[mg/ml]
       0.00000          0.137883E-01
      0.500000E-02      0.137081E-01
      0.100000E-01      0.134707E-01
      0.150000E-01      0.130854E-01
      0.200000E-01      0.125673E-01
      0.250000E-01      0.119361E-01
      0.300000E-01      0.112149E-01
      0.350000E-01      0.104292E-01
      0.400000E-01      0.960490E-02
      0.450000E-01      0.876751E-02
      0.500000E-01      0.794041E-02
      0.550000E-01      0.714400E-02
      0.600000E-01      0.639489E-02
      0.650000E-01      0.570542E-02
      0.700000E-01      0.508348E-02
      0.750000E-01      0.453271E-02
      0.800000E-01      0.405287E-02
      0.850000E-01      0.364046E-02
      0.900000E-01      0.328949E-02
      0.950000E-01      0.299231E-02
      0.100000          0.274037E-02
      0.105000          0.252501E-02
      0.110000          0.233805E-02
      0.115000          0.217228E-02
      0.120000          0.202175E-02
      0.125000          0.188192E-02
      0.130000          0.174966E-02
      0.135000          0.162308E-02
      0.140000          0.150138E-02
      0.145000          0.138451E-02
      0.150000          0.127297E-02
      0.155000          0.116746E-02
      0.160000          0.106873E-02
      0.165000          0.977374E-03
      0.170000          0.893719E-03
      0.175000          0.817803E-03
      0.180000          0.749365E-03
      0.185000          0.687898E-03
      0.190000          0.632723E-03
      0.195000          0.583071E-03
      0.200000          0.538169E-03
      0.205000          0.497305E-03
      0.210000          0.459880E-03
      0.215000          0.425434E-03
      0.220000          0.393651E-03
      0.225000          0.364346E-03
      0.230000          0.337435E-03
      0.235000          0.312901E-03
      0.240000          0.290753E-03
      0.245000          0.271000E-03
      0.250000          0.253615E-03
      0.255000          0.238524E-03
      0.260000          0.225599E-03
      0.265000          0.214656E-03
      0.270000          0.205471E-03
      0.275000          0.197789E-03
      0.280000          0.191345E-03
      0.285000          0.185878E-03
      0.290000          0.181150E-03
      0.295000          0.176952E-03
      0.300000          0.173115E-03
      0.305000          0.169512E-03
      0.310000          0.166058E-03
      0.315000          0.162703E-03
      0.320000          0.159433E-03
      0.325000          0.156258E-03
      0.330000          0.153205E-03
      0.335000          0.150314E-03
      0.340000          0.147628E-03
      0.345000          0.145191E-03
      0.350000          0.143038E-03
      0.355000          0.141195E-03
      0.360000          0.139673E-03
      0.365000          0.138468E-03
      0.370000          0.137557E-03
      0.375000          0.136900E-03
      0.380000          0.136440E-03
      0.385000          0.136107E-03
      0.390000          0.135819E-03
      0.395000          0.135490E-03
      0.400000          0.135033E-03
      0.405000          0.134366E-03
      0.410000          0.133421E-03
      0.415000          0.132146E-03
      0.420000          0.130509E-03
      0.425000          0.128502E-03
      0.430000          0.126142E-03
      0.435000          0.123467E-03
      0.440000          0.120536E-03
      0.445000          0.117425E-03
      0.450000          0.114217E-03
      0.455000          0.111001E-03
      0.460000          0.107865E-03
      0.465000          0.104888E-03
      0.470000          0.102138E-03
      0.475000          0.996646E-04
      0.480000          0.975037E-04
      0.485000          0.956707E-04
      0.490000          0.941640E-04
      0.495000          0.929667E-04
      0.500000          0.920483E-04
