 I_abs(s)[cm^-1]/c[mg/ml]
       0.00000          0.146827E-01
      0.500000E-02      0.146169E-01
      0.100000E-01      0.144214E-01
      0.150000E-01      0.141014E-01
      0.200000E-01      0.136655E-01
      0.250000E-01      0.131255E-01
      0.300000E-01      0.124952E-01
      0.350000E-01      0.117906E-01
      0.400000E-01      0.110288E-01
      0.450000E-01      0.102273E-01
      0.500000E-01      0.940386E-02
      0.550000E-01      0.857522E-02
      0.600000E-01      0.775701E-02
      0.650000E-01      0.696310E-02
      0.700000E-01      0.620533E-02
      0.750000E-01      0.549323E-02
      0.800000E-01      0.483396E-02
      0.850000E-01      0.423232E-02
      0.900000E-01      0.369081E-02
      0.950000E-01      0.320991E-02
      0.100000          0.278826E-02
      0.105000          0.242306E-02
      0.110000          0.211033E-02
      0.115000          0.184532E-02
      0.120000          0.162277E-02
      0.125000          0.143726E-02
      0.130000          0.128342E-02
      0.135000          0.115613E-02
      0.140000          0.105072E-02
      0.145000          0.962987E-03
      0.150000          0.889322E-03
      0.155000          0.826672E-03
      0.160000          0.772539E-03
      0.165000          0.724924E-03
      0.170000          0.682274E-03
      0.175000          0.643408E-03
      0.180000          0.607453E-03
      0.185000          0.573777E-03
      0.190000          0.541938E-03
      0.195000          0.511631E-03
      0.200000          0.482662E-03
      0.205000          0.454913E-03
      0.210000          0.428329E-03
      0.215000          0.402902E-03
      0.220000          0.378663E-03
      0.225000          0.355676E-03
      0.230000          0.334024E-03
      0.235000          0.313810E-03
      0.240000          0.295140E-03
      0.245000          0.278113E-03
      0.250000          0.262815E-03
      0.255000          0.249304E-03
      0.260000          0.237602E-03
      0.265000          0.227690E-03
      0.270000          0.219503E-03
      0.275000          0.212930E-03
      0.280000          0.207817E-03
      0.285000          0.203975E-03
      0.290000          0.201191E-03
      0.295000          0.199237E-03
      0.300000          0.197881E-03
      0.305000          0.196905E-03
      0.310000          0.196110E-03
      0.315000          0.195325E-03
      0.320000          0.194417E-03
      0.325000          0.193290E-03
      0.330000          0.191889E-03
      0.335000          0.190190E-03
      0.340000          0.188203E-03
      0.345000          0.185960E-03
      0.350000          0.183507E-03
      0.355000          0.180898E-03
      0.360000          0.178188E-03
      0.365000          0.175422E-03
      0.370000          0.172637E-03
      0.375000          0.169854E-03
      0.380000          0.167078E-03
      0.385000          0.164301E-03
      0.390000          0.161502E-03
      0.395000          0.158653E-03
      0.400000          0.155721E-03
      0.405000          0.152674E-03
      0.410000          0.149484E-03
      0.415000          0.146133E-03
      0.420000          0.142612E-03
      0.425000          0.138927E-03
      0.430000          0.135095E-03
      0.435000          0.131148E-03
      0.440000          0.127128E-03
      0.445000          0.123083E-03
      0.450000          0.119070E-03
      0.455000          0.115145E-03
      0.460000          0.111364E-03
      0.465000          0.107777E-03
      0.470000          0.104430E-03
      0.475000          0.101357E-03
      0.480000          0.985830E-04
      0.485000          0.961223E-04
      0.490000          0.939782E-04
      0.495000          0.921438E-04
      0.500000          0.906036E-04
