 I_abs(s)[cm^-1]/c[mg/ml]
       0.00000          0.141693E-01
      0.500000E-02      0.140995E-01
      0.100000E-01      0.138922E-01
      0.150000E-01      0.135539E-01
      0.200000E-01      0.130952E-01
      0.250000E-01      0.125301E-01
      0.300000E-01      0.118752E-01
      0.350000E-01      0.111495E-01
      0.400000E-01      0.103728E-01
      0.450000E-01      0.956541E-02
      0.500000E-01      0.874686E-02
      0.550000E-01      0.793548E-02
      0.600000E-01      0.714755E-02
      0.650000E-01      0.639688E-02
      0.700000E-01      0.569443E-02
      0.750000E-01      0.504819E-02
      0.800000E-01      0.446314E-02
      0.850000E-01      0.394148E-02
      0.900000E-01      0.348283E-02
      0.950000E-01      0.308470E-02
      0.100000          0.274289E-02
      0.105000          0.245198E-02
      0.110000          0.220583E-02
      0.115000          0.199798E-02
      0.120000          0.182207E-02
      0.125000          0.167215E-02
      0.130000          0.154289E-02
      0.135000          0.142972E-02
      0.140000          0.132894E-02
      0.145000          0.123765E-02
      0.150000          0.115373E-02
      0.155000          0.107571E-02
      0.160000          0.100268E-02
      0.165000          0.934107E-03
      0.170000          0.869726E-03
      0.175000          0.809430E-03
      0.180000          0.753166E-03
      0.185000          0.700871E-03
      0.190000          0.652435E-03
      0.195000          0.607681E-03
      0.200000          0.566371E-03
      0.205000          0.528223E-03
      0.210000          0.492938E-03
      0.215000          0.460225E-03
      0.220000          0.429826E-03
      0.225000          0.401534E-03
      0.230000          0.375201E-03
      0.235000          0.350740E-03
      0.240000          0.328113E-03
      0.245000          0.307316E-03
      0.250000          0.288365E-03
      0.255000          0.271270E-03
      0.260000          0.256019E-03
      0.265000          0.242567E-03
      0.270000          0.230822E-03
      0.275000          0.220649E-03
      0.280000          0.211872E-03
      0.285000          0.204283E-03
      0.290000          0.197656E-03
      0.295000          0.191766E-03
      0.300000          0.186402E-03
      0.305000          0.181383E-03
      0.310000          0.176567E-03
      0.315000          0.171860E-03
      0.320000          0.167218E-03
      0.325000          0.162640E-03
      0.330000          0.158167E-03
      0.335000          0.153864E-03
      0.340000          0.149815E-03
      0.345000          0.146102E-03
      0.350000          0.142799E-03
      0.355000          0.139957E-03
      0.360000          0.137602E-03
      0.365000          0.135724E-03
      0.370000          0.134284E-03
      0.375000          0.133210E-03
      0.380000          0.132409E-03
      0.385000          0.131774E-03
      0.390000          0.131190E-03
      0.395000          0.130547E-03
      0.400000          0.129746E-03
      0.405000          0.128709E-03
      0.410000          0.127380E-03
      0.415000          0.125731E-03
      0.420000          0.123762E-03
      0.425000          0.121493E-03
      0.430000          0.118969E-03
      0.435000          0.116245E-03
      0.440000          0.113388E-03
      0.445000          0.110464E-03
      0.450000          0.107536E-03
      0.455000          0.104657E-03
      0.460000          0.101868E-03
      0.465000          0.991950E-04
      0.470000          0.966512E-04
      0.475000          0.942348E-04
      0.480000          0.919337E-04
      0.485000          0.897284E-04
      0.490000          0.875958E-04
      0.495000          0.855130E-04
      0.500000          0.834607E-04
