 I_abs(s)[cm^-1]/c[mg/ml]
       0.00000          0.137112E-01
      0.500000E-02      0.136142E-01
      0.100000E-01      0.133274E-01
      0.150000E-01      0.128634E-01
      0.200000E-01      0.122422E-01
      0.250000E-01      0.114900E-01
      0.300000E-01      0.106372E-01
      0.350000E-01      0.971643E-02
      0.400000E-01      0.876093E-02
      0.450000E-01      0.780220E-02
      0.500000E-01      0.686856E-02
      0.550000E-01      0.598383E-02
      0.600000E-01      0.516648E-02
      0.650000E-01      0.442926E-02
      0.700000E-01      0.377927E-02
      0.750000E-01      0.321844E-02
      0.800000E-01      0.274426E-02
      0.850000E-01      0.235081E-02
      0.900000E-01      0.202975E-02
      0.950000E-01      0.177140E-02
      0.100000          0.156566E-02
      0.105000          0.140274E-02
      0.110000          0.127377E-02
      0.115000          0.117108E-02
      0.120000          0.108839E-02
      0.125000          0.102073E-02
      0.130000          0.964362E-03
      0.135000          0.916491E-03
      0.140000          0.875070E-03
      0.145000          0.838560E-03
      0.150000          0.805745E-03
      0.155000          0.775603E-03
      0.160000          0.747241E-03
      0.165000          0.719866E-03
      0.170000          0.692806E-03
      0.175000          0.665536E-03
      0.180000          0.637718E-03
      0.185000          0.609213E-03
      0.190000          0.580088E-03
      0.195000          0.550590E-03
      0.200000          0.521099E-03
      0.205000          0.492077E-03
      0.210000          0.464003E-03
      0.215000          0.437310E-03
      0.220000          0.412351E-03
      0.225000          0.389357E-03
      0.230000          0.368440E-03
      0.235000          0.349592E-03
      0.240000          0.332713E-03
      0.245000          0.317638E-03
      0.250000          0.304171E-03
      0.255000          0.292113E-03
      0.260000          0.281282E-03
      0.265000          0.271525E-03
      0.270000          0.262723E-03
      0.275000          0.254780E-03
      0.280000          0.247613E-03
      0.285000          0.241144E-03
      0.290000          0.235286E-03
      0.295000          0.229937E-03
      0.300000          0.224980E-03
      0.305000          0.220294E-03
      0.310000          0.215754E-03
      0.315000          0.211252E-03
      0.320000          0.206705E-03
      0.325000          0.202064E-03
      0.330000          0.197321E-03
      0.335000          0.192507E-03
      0.340000          0.187683E-03
      0.345000          0.182933E-03
      0.350000          0.178349E-03
      0.355000          0.174016E-03
      0.360000          0.169997E-03
      0.365000          0.166328E-03
      0.370000          0.163009E-03
      0.375000          0.160005E-03
      0.380000          0.157253E-03
      0.385000          0.154669E-03
      0.390000          0.152160E-03
      0.395000          0.149636E-03
      0.400000          0.147019E-03
      0.405000          0.144256E-03
      0.410000          0.141318E-03
      0.415000          0.138208E-03
      0.420000          0.134951E-03
      0.425000          0.131595E-03
      0.430000          0.128200E-03
      0.435000          0.124829E-03
      0.440000          0.121546E-03
      0.445000          0.118403E-03
      0.450000          0.115438E-03
      0.455000          0.112674E-03
      0.460000          0.110119E-03
      0.465000          0.107765E-03
      0.470000          0.105596E-03
      0.475000          0.103588E-03
      0.480000          0.101715E-03
      0.485000          0.999510E-04
      0.490000          0.982731E-04
      0.495000          0.966636E-04
      0.500000          0.951095E-04
