 I_abs(s)[cm^-1]/c[mg/ml]
       0.00000          0.143027E-01
      0.500000E-02      0.142512E-01
      0.100000E-01      0.140978E-01
      0.150000E-01      0.138457E-01
      0.200000E-01      0.135001E-01
      0.250000E-01      0.130680E-01
      0.300000E-01      0.125582E-01
      0.350000E-01      0.119808E-01
      0.400000E-01      0.113468E-01
      0.450000E-01      0.106681E-01
      0.500000E-01      0.995703E-02
      0.550000E-01      0.922580E-02
      0.600000E-01      0.848643E-02
      0.650000E-01      0.775033E-02
      0.700000E-01      0.702805E-02
      0.750000E-01      0.632905E-02
      0.800000E-01      0.566151E-02
      0.850000E-01      0.503222E-02
      0.900000E-01      0.444647E-02
      0.950000E-01      0.390809E-02
      0.100000          0.341940E-02
      0.105000          0.298137E-02
      0.110000          0.259367E-02
      0.115000          0.225483E-02
      0.120000          0.196243E-02
      0.125000          0.171329E-02
      0.130000          0.150361E-02
      0.135000          0.132924E-02
      0.140000          0.118577E-02
      0.145000          0.106879E-02
      0.150000          0.973984E-03
      0.155000          0.897253E-03
      0.160000          0.834839E-03
      0.165000          0.783385E-03
      0.170000          0.739985E-03
      0.175000          0.702204E-03
      0.180000          0.668081E-03
      0.185000          0.636112E-03
      0.190000          0.605211E-03
      0.195000          0.574671E-03
      0.200000          0.544104E-03
      0.205000          0.513388E-03
      0.210000          0.482606E-03
      0.215000          0.451990E-03
      0.220000          0.421864E-03
      0.225000          0.392603E-03
      0.230000          0.364589E-03
      0.235000          0.338181E-03
      0.240000          0.313690E-03
      0.245000          0.291360E-03
      0.250000          0.271362E-03
      0.255000          0.253790E-03
      0.260000          0.238662E-03
      0.265000          0.225923E-03
      0.270000          0.215460E-03
      0.275000          0.207106E-03
      0.280000          0.200656E-03
      0.285000          0.195877E-03
      0.290000          0.192519E-03
      0.295000          0.190324E-03
      0.300000          0.189040E-03
      0.305000          0.188421E-03
      0.310000          0.188239E-03
      0.315000          0.188285E-03
      0.320000          0.188374E-03
      0.325000          0.188346E-03
      0.330000          0.188066E-03
      0.335000          0.187427E-03
      0.340000          0.186345E-03
      0.345000          0.184761E-03
      0.350000          0.182640E-03
      0.355000          0.179966E-03
      0.360000          0.176742E-03
      0.365000          0.172989E-03
      0.370000          0.168743E-03
      0.375000          0.164051E-03
      0.380000          0.158973E-03
      0.385000          0.153576E-03
      0.390000          0.147934E-03
      0.395000          0.142124E-03
      0.400000          0.136226E-03
      0.405000          0.130321E-03
      0.410000          0.124485E-03
      0.415000          0.118794E-03
      0.420000          0.113316E-03
      0.425000          0.108113E-03
      0.430000          0.103240E-03
      0.435000          0.987409E-04
      0.440000          0.946503E-04
      0.445000          0.909928E-04
      0.450000          0.877821E-04
      0.455000          0.850217E-04
      0.460000          0.827047E-04
      0.465000          0.808147E-04
      0.470000          0.793268E-04
      0.475000          0.782084E-04
      0.480000          0.774207E-04
      0.485000          0.769198E-04
      0.490000          0.766583E-04
      0.495000          0.765867E-04
      0.500000          0.766549E-04
