 I_abs(s)[cm^-1]/c[mg/ml]
       0.00000          0.123064E-01
      0.500000E-02      0.120894E-01
      0.100000E-01      0.114630E-01
      0.150000E-01      0.104968E-01
      0.200000E-01      0.929421E-02
      0.250000E-01      0.797553E-02
      0.300000E-01      0.666011E-02
      0.350000E-01      0.544952E-02
      0.400000E-01      0.441555E-02
      0.450000E-01      0.359451E-02
      0.500000E-01      0.298829E-02
      0.550000E-01      0.257099E-02
      0.600000E-01      0.229931E-02
      0.650000E-01      0.212386E-02
      0.700000E-01      0.199918E-02
      0.750000E-01      0.189074E-02
      0.800000E-01      0.177801E-02
      0.850000E-01      0.165386E-02
      0.900000E-01      0.152136E-02
      0.950000E-01      0.138910E-02
      0.100000          0.126675E-02
      0.105000          0.116165E-02
      0.110000          0.107709E-02
      0.115000          0.101224E-02
      0.120000          0.963288E-03
      0.125000          0.925038E-03
      0.130000          0.892514E-03
      0.135000          0.861980E-03
      0.140000          0.831283E-03
      0.145000          0.799620E-03
      0.150000          0.766989E-03
      0.155000          0.733621E-03
      0.160000          0.699638E-03
      0.165000          0.665002E-03
      0.170000          0.629717E-03
      0.175000          0.594117E-03
      0.180000          0.559070E-03
      0.185000          0.525965E-03
      0.190000          0.496471E-03
      0.195000          0.472120E-03
      0.200000          0.453860E-03
      0.205000          0.441739E-03
      0.210000          0.434818E-03
      0.215000          0.431344E-03
      0.220000          0.429147E-03
      0.225000          0.426119E-03
      0.230000          0.420661E-03
      0.235000          0.411956E-03
      0.240000          0.400033E-03
      0.245000          0.385604E-03
      0.250000          0.369768E-03
      0.255000          0.353661E-03
      0.260000          0.338175E-03
      0.265000          0.323790E-03
      0.270000          0.310571E-03
      0.275000          0.298272E-03
      0.280000          0.286520E-03
      0.285000          0.274989E-03
      0.290000          0.263524E-03
      0.295000          0.252175E-03
      0.300000          0.241150E-03
      0.305000          0.230722E-03
      0.310000          0.221118E-03
      0.315000          0.212442E-03
      0.320000          0.204644E-03
      0.325000          0.197552E-03
      0.330000          0.190936E-03
      0.335000          0.184586E-03
      0.340000          0.178379E-03
      0.345000          0.172309E-03
      0.350000          0.166476E-03
      0.355000          0.161042E-03
      0.360000          0.156165E-03
      0.365000          0.151944E-03
      0.370000          0.148377E-03
      0.375000          0.145349E-03
      0.380000          0.142657E-03
      0.385000          0.140053E-03
      0.390000          0.137298E-03
      0.395000          0.134214E-03
      0.400000          0.130713E-03
      0.405000          0.126810E-03
      0.410000          0.122612E-03
      0.415000          0.118280E-03
      0.420000          0.113997E-03
      0.425000          0.109928E-03
      0.430000          0.106194E-03
      0.435000          0.102857E-03
      0.440000          0.999275E-04
      0.445000          0.973792E-04
      0.450000          0.951674E-04
      0.455000          0.932485E-04
      0.460000          0.915899E-04
      0.465000          0.901698E-04
      0.470000          0.889675E-04
      0.475000          0.879496E-04
      0.480000          0.870582E-04
      0.485000          0.862065E-04
      0.490000          0.852863E-04
      0.495000          0.841853E-04
      0.500000          0.828110E-04
