 I_abs(s)[cm^-1]/c[mg/ml]
       0.00000          0.123721E-01
      0.500000E-02      0.121307E-01
      0.100000E-01      0.114435E-01
      0.150000E-01      0.104120E-01
      0.200000E-01      0.917761E-02
      0.250000E-01      0.788951E-02
      0.300000E-01      0.667412E-02
      0.350000E-01      0.561478E-02
      0.400000E-01      0.474582E-02
      0.450000E-01      0.406007E-02
      0.500000E-01      0.352478E-02
      0.550000E-01      0.309947E-02
      0.600000E-01      0.274963E-02
      0.650000E-01      0.245322E-02
      0.700000E-01      0.220030E-02
      0.750000E-01      0.198814E-02
      0.800000E-01      0.181558E-02
      0.850000E-01      0.167908E-02
      0.900000E-01      0.157178E-02
      0.950000E-01      0.148491E-02
      0.100000          0.141005E-02
      0.105000          0.134094E-02
      0.110000          0.127402E-02
      0.115000          0.120781E-02
      0.120000          0.114192E-02
      0.125000          0.107628E-02
      0.130000          0.101097E-02
      0.135000          0.946459E-03
      0.140000          0.883819E-03
      0.145000          0.824609E-03
      0.150000          0.770343E-03
      0.155000          0.721829E-03
      0.160000          0.678774E-03
      0.165000          0.639918E-03
      0.170000          0.603667E-03
      0.175000          0.568911E-03
      0.180000          0.535611E-03
      0.185000          0.504857E-03
      0.190000          0.478381E-03
      0.195000          0.457771E-03
      0.200000          0.443741E-03
      0.205000          0.435772E-03
      0.210000          0.432211E-03
      0.215000          0.430736E-03
      0.220000          0.428952E-03
      0.225000          0.424895E-03
      0.230000          0.417345E-03
      0.235000          0.405931E-03
      0.240000          0.391092E-03
      0.245000          0.373938E-03
      0.250000          0.356042E-03
      0.255000          0.339121E-03
      0.260000          0.324653E-03
      0.265000          0.313490E-03
      0.270000          0.305613E-03
      0.275000          0.300132E-03
      0.280000          0.295583E-03
      0.285000          0.290424E-03
      0.290000          0.283537E-03
      0.295000          0.274548E-03
      0.300000          0.263838E-03
      0.305000          0.252263E-03
      0.310000          0.240740E-03
      0.315000          0.229907E-03
      0.320000          0.219971E-03
      0.325000          0.210811E-03
      0.330000          0.202204E-03
      0.335000          0.194039E-03
      0.340000          0.186395E-03
      0.345000          0.179450E-03
      0.350000          0.173307E-03
      0.355000          0.167859E-03
      0.360000          0.162781E-03
      0.365000          0.157674E-03
      0.370000          0.152269E-03
      0.375000          0.146574E-03
      0.380000          0.140885E-03
      0.385000          0.135633E-03
      0.390000          0.131162E-03
      0.395000          0.127545E-03
      0.400000          0.124537E-03
      0.405000          0.121684E-03
      0.410000          0.118531E-03
      0.415000          0.114809E-03
      0.420000          0.110531E-03
      0.425000          0.105945E-03
      0.430000          0.101390E-03
      0.435000          0.971368E-04
      0.440000          0.932900E-04
      0.445000          0.897917E-04
      0.450000          0.865000E-04
      0.455000          0.832896E-04
      0.460000          0.801158E-04
      0.465000          0.770161E-04
      0.470000          0.740638E-04
      0.475000          0.713131E-04
      0.480000          0.687732E-04
      0.485000          0.664245E-04
      0.490000          0.642585E-04
      0.495000          0.623115E-04
      0.500000          0.606632E-04
