 I_abs(s)[cm^-1]/c[mg/ml]
       0.00000          0.118439E-01
      0.500000E-02      0.115946E-01
      0.100000E-01      0.108864E-01
      0.150000E-01      0.982861E-02
      0.200000E-01      0.857403E-02
      0.250000E-01      0.728408E-02
      0.300000E-01      0.609549E-02
      0.350000E-01      0.509724E-02
      0.400000E-01      0.432272E-02
      0.450000E-01      0.375691E-02
      0.500000E-01      0.335385E-02
      0.550000E-01      0.305736E-02
      0.600000E-01      0.281840E-02
      0.650000E-01      0.260470E-02
      0.700000E-01      0.240215E-02
      0.750000E-01      0.220986E-02
      0.800000E-01      0.203278E-02
      0.850000E-01      0.187542E-02
      0.900000E-01      0.173853E-02
      0.950000E-01      0.161913E-02
      0.100000          0.151257E-02
      0.105000          0.141489E-02
      0.110000          0.132418E-02
      0.115000          0.124050E-02
      0.120000          0.116478E-02
      0.125000          0.109761E-02
      0.130000          0.103853E-02
      0.135000          0.986154E-03
      0.140000          0.938848E-03
      0.145000          0.895427E-03
      0.150000          0.855423E-03
      0.155000          0.818812E-03
      0.160000          0.785435E-03
      0.165000          0.754499E-03
      0.170000          0.724520E-03
      0.175000          0.693750E-03
      0.180000          0.660897E-03
      0.185000          0.625754E-03
      0.190000          0.589397E-03
      0.195000          0.553855E-03
      0.200000          0.521370E-03
      0.205000          0.493599E-03
      0.210000          0.471067E-03
      0.215000          0.453076E-03
      0.220000          0.438065E-03
      0.225000          0.424212E-03
      0.230000          0.410025E-03
      0.235000          0.394710E-03
      0.240000          0.378222E-03
      0.245000          0.361062E-03
      0.250000          0.343965E-03
      0.255000          0.327603E-03
      0.260000          0.312425E-03
      0.265000          0.298615E-03
      0.270000          0.286161E-03
      0.275000          0.274936E-03
      0.280000          0.264775E-03
      0.285000          0.255506E-03
      0.290000          0.246961E-03
      0.295000          0.238977E-03
      0.300000          0.231402E-03
      0.305000          0.224108E-03
      0.310000          0.217002E-03
      0.315000          0.210033E-03
      0.320000          0.203181E-03
      0.325000          0.196454E-03
      0.330000          0.189869E-03
      0.335000          0.183448E-03
      0.340000          0.177218E-03
      0.345000          0.171201E-03
      0.350000          0.165422E-03
      0.355000          0.159900E-03
      0.360000          0.154650E-03
      0.365000          0.149675E-03
      0.370000          0.144965E-03
      0.375000          0.140491E-03
      0.380000          0.136193E-03
      0.385000          0.131987E-03
      0.390000          0.127767E-03
      0.395000          0.123429E-03
      0.400000          0.118905E-03
      0.405000          0.114189E-03
      0.410000          0.109349E-03
      0.415000          0.104521E-03
      0.420000          0.998674E-04
      0.425000          0.955326E-04
      0.430000          0.916030E-04
      0.435000          0.880920E-04
      0.440000          0.849547E-04
      0.445000          0.821226E-04
      0.450000          0.795402E-04
      0.455000          0.771855E-04
      0.460000          0.750663E-04
      0.465000          0.731977E-04
      0.470000          0.715764E-04
      0.475000          0.701676E-04
      0.480000          0.689099E-04
      0.485000          0.677332E-04
      0.490000          0.665760E-04
      0.495000          0.653883E-04
      0.500000          0.641202E-04
