 I_abs(s)[cm^-1]/c[mg/ml]
       0.00000          0.123575E-01
      0.500000E-02      0.121593E-01
      0.100000E-01      0.115840E-01
      0.150000E-01      0.106872E-01
      0.200000E-01      0.955272E-02
      0.250000E-01      0.828159E-02
      0.300000E-01      0.697865E-02
      0.350000E-01      0.573971E-02
      0.400000E-01      0.464100E-02
      0.450000E-01      0.373216E-02
      0.500000E-01      0.303380E-02
      0.550000E-01      0.253942E-02
      0.600000E-01      0.222093E-02
      0.650000E-01      0.203647E-02
      0.700000E-01      0.193900E-02
      0.750000E-01      0.188413E-02
      0.800000E-01      0.183613E-02
      0.850000E-01      0.177129E-02
      0.900000E-01      0.167875E-02
      0.950000E-01      0.155896E-02
      0.100000          0.142055E-02
      0.105000          0.127649E-02
      0.110000          0.114036E-02
      0.115000          0.102338E-02
      0.120000          0.932499E-03
      0.125000          0.869814E-03
      0.130000          0.832948E-03
      0.135000          0.816234E-03
      0.140000          0.812245E-03
      0.145000          0.813321E-03
      0.150000          0.812820E-03
      0.155000          0.805943E-03
      0.160000          0.790078E-03
      0.165000          0.764727E-03
      0.170000          0.731119E-03
      0.175000          0.691654E-03
      0.180000          0.649291E-03
      0.185000          0.606994E-03
      0.190000          0.567290E-03
      0.195000          0.531990E-03
      0.200000          0.502065E-03
      0.205000          0.477663E-03
      0.210000          0.458251E-03
      0.215000          0.442816E-03
      0.220000          0.430115E-03
      0.225000          0.418899E-03
      0.230000          0.408100E-03
      0.235000          0.396947E-03
      0.240000          0.384998E-03
      0.245000          0.372118E-03
      0.250000          0.358393E-03
      0.255000          0.344035E-03
      0.260000          0.329301E-03
      0.265000          0.314430E-03
      0.270000          0.299633E-03
      0.275000          0.285111E-03
      0.280000          0.271085E-03
      0.285000          0.257832E-03
      0.290000          0.245686E-03
      0.295000          0.235012E-03
      0.300000          0.226141E-03
      0.305000          0.219290E-03
      0.310000          0.214487E-03
      0.315000          0.211527E-03
      0.320000          0.209963E-03
      0.325000          0.209167E-03
      0.330000          0.208422E-03
      0.335000          0.207042E-03
      0.340000          0.204500E-03
      0.345000          0.200513E-03
      0.350000          0.195088E-03
      0.355000          0.188504E-03
      0.360000          0.181244E-03
      0.365000          0.173887E-03
      0.370000          0.166992E-03
      0.375000          0.160993E-03
      0.380000          0.156124E-03
      0.385000          0.152397E-03
      0.390000          0.149619E-03
      0.395000          0.147453E-03
      0.400000          0.145496E-03
      0.405000          0.143367E-03
      0.410000          0.140772E-03
      0.415000          0.137556E-03
      0.420000          0.133710E-03
      0.425000          0.129365E-03
      0.430000          0.124751E-03
      0.435000          0.120146E-03
      0.440000          0.115824E-03
      0.445000          0.112012E-03
      0.450000          0.108849E-03
      0.455000          0.106378E-03
      0.460000          0.104539E-03
      0.465000          0.103188E-03
      0.470000          0.102124E-03
      0.475000          0.101120E-03
      0.480000          0.999579E-04
      0.485000          0.984587E-04
      0.490000          0.965047E-04
      0.495000          0.940508E-04
      0.500000          0.911246E-04
