 I_abs(s)[cm^-1]/c[mg/ml]
       0.00000          0.129417E-01
      0.500000E-02      0.127709E-01
      0.100000E-01      0.122749E-01
      0.150000E-01      0.115016E-01
      0.200000E-01      0.105223E-01
      0.250000E-01      0.942185E-02
      0.300000E-01      0.828664E-02
      0.350000E-01      0.719339E-02
      0.400000E-01      0.620064E-02
      0.450000E-01      0.534390E-02
      0.500000E-01      0.463501E-02
      0.550000E-01      0.406548E-02
      0.600000E-01      0.361256E-02
      0.650000E-01      0.324663E-02
      0.700000E-01      0.293834E-02
      0.750000E-01      0.266408E-02
      0.800000E-01      0.240915E-02
      0.850000E-01      0.216813E-02
      0.900000E-01      0.194315E-02
      0.950000E-01      0.174068E-02
      0.100000          0.156783E-02
      0.105000          0.142934E-02
      0.110000          0.132561E-02
      0.115000          0.125236E-02
      0.120000          0.120159E-02
      0.125000          0.116351E-02
      0.130000          0.112874E-02
      0.135000          0.109027E-02
      0.140000          0.104454E-02
      0.145000          0.991686E-03
      0.150000          0.934716E-03
      0.155000          0.878224E-03
      0.160000          0.826809E-03
      0.165000          0.783758E-03
      0.170000          0.750240E-03
      0.175000          0.725184E-03
      0.180000          0.705766E-03
      0.185000          0.688313E-03
      0.190000          0.669336E-03
      0.195000          0.646401E-03
      0.200000          0.618634E-03
      0.205000          0.586764E-03
      0.210000          0.552756E-03
      0.215000          0.519170E-03
      0.220000          0.488436E-03
      0.225000          0.462264E-03
      0.230000          0.441300E-03
      0.235000          0.425092E-03
      0.240000          0.412347E-03
      0.245000          0.401350E-03
      0.250000          0.390439E-03
      0.255000          0.378388E-03
      0.260000          0.364634E-03
      0.265000          0.349283E-03
      0.270000          0.332960E-03
      0.275000          0.316543E-03
      0.280000          0.300879E-03
      0.285000          0.286563E-03
      0.290000          0.273818E-03
      0.295000          0.262510E-03
      0.300000          0.252253E-03
      0.305000          0.242570E-03
      0.310000          0.233062E-03
      0.315000          0.223517E-03
      0.320000          0.213954E-03
      0.325000          0.204595E-03
      0.330000          0.195773E-03
      0.335000          0.187823E-03
      0.340000          0.180979E-03
      0.345000          0.175314E-03
      0.350000          0.170722E-03
      0.355000          0.166953E-03
      0.360000          0.163678E-03
      0.365000          0.160565E-03
      0.370000          0.157342E-03
      0.375000          0.153843E-03
      0.380000          0.150013E-03
      0.385000          0.145895E-03
      0.390000          0.141592E-03
      0.395000          0.137231E-03
      0.400000          0.132924E-03
      0.405000          0.128752E-03
      0.410000          0.124758E-03
      0.415000          0.120951E-03
      0.420000          0.117324E-03
      0.425000          0.113865E-03
      0.430000          0.110574E-03
      0.435000          0.107460E-03
      0.440000          0.104549E-03
      0.445000          0.101870E-03
      0.450000          0.994514E-04
      0.455000          0.973094E-04
      0.460000          0.954452E-04
      0.465000          0.938402E-04
      0.470000          0.924569E-04
      0.475000          0.912413E-04
      0.480000          0.901288E-04
      0.485000          0.890502E-04
      0.490000          0.879397E-04
      0.495000          0.867422E-04
      0.500000          0.854198E-04
