 I_abs(s)[cm^-1]/c[mg/ml]
       0.00000          0.118510E-01
      0.500000E-02      0.115700E-01
      0.100000E-01      0.107820E-01
      0.150000E-01      0.963463E-02
      0.200000E-01      0.832174E-02
      0.250000E-01      0.702784E-02
      0.300000E-01      0.588413E-02
      0.350000E-01      0.495005E-02
      0.400000E-01      0.422188E-02
      0.450000E-01      0.365865E-02
      0.500000E-01      0.321074E-02
      0.550000E-01      0.283942E-02
      0.600000E-01      0.252289E-02
      0.650000E-01      0.225196E-02
      0.700000E-01      0.202225E-02
      0.750000E-01      0.182883E-02
      0.800000E-01      0.166529E-02
      0.850000E-01      0.152581E-02
      0.900000E-01      0.140709E-02
      0.950000E-01      0.130823E-02
      0.100000          0.122877E-02
      0.105000          0.116649E-02
      0.110000          0.111667E-02
      0.115000          0.107324E-02
      0.120000          0.103088E-02
      0.125000          0.986709E-03
      0.130000          0.940565E-03
      0.135000          0.894051E-03
      0.140000          0.849101E-03
      0.145000          0.806939E-03
      0.150000          0.767815E-03
      0.155000          0.731342E-03
      0.160000          0.696969E-03
      0.165000          0.664282E-03
      0.170000          0.633069E-03
      0.175000          0.603304E-03
      0.180000          0.575159E-03
      0.185000          0.549021E-03
      0.190000          0.525413E-03
      0.195000          0.504780E-03
      0.200000          0.487215E-03
      0.205000          0.472302E-03
      0.210000          0.459185E-03
      0.215000          0.446814E-03
      0.220000          0.434244E-03
      0.225000          0.420821E-03
      0.230000          0.406218E-03
      0.235000          0.390380E-03
      0.240000          0.373458E-03
      0.245000          0.355787E-03
      0.250000          0.337859E-03
      0.255000          0.320256E-03
      0.260000          0.303526E-03
      0.265000          0.288089E-03
      0.270000          0.274200E-03
      0.275000          0.262022E-03
      0.280000          0.251696E-03
      0.285000          0.243332E-03
      0.290000          0.236890E-03
      0.295000          0.232033E-03
      0.300000          0.228085E-03
      0.305000          0.224185E-03
      0.310000          0.219605E-03
      0.315000          0.214040E-03
      0.320000          0.207709E-03
      0.325000          0.201170E-03
      0.330000          0.194974E-03
      0.335000          0.189348E-03
      0.340000          0.184095E-03
      0.345000          0.178768E-03
      0.350000          0.172983E-03
      0.355000          0.166671E-03
      0.360000          0.160126E-03
      0.365000          0.153832E-03
      0.370000          0.148203E-03
      0.375000          0.143385E-03
      0.380000          0.139232E-03
      0.385000          0.135439E-03
      0.390000          0.131726E-03
      0.395000          0.127971E-03
      0.400000          0.124224E-03
      0.405000          0.120640E-03
      0.410000          0.117375E-03
      0.415000          0.114518E-03
      0.420000          0.112071E-03
      0.425000          0.109963E-03
      0.430000          0.108083E-03
      0.435000          0.106292E-03
      0.440000          0.104446E-03
      0.445000          0.102414E-03
      0.450000          0.100104E-03
      0.455000          0.974904E-04
      0.460000          0.946213E-04
      0.465000          0.916088E-04
      0.470000          0.886010E-04
      0.475000          0.857478E-04
      0.480000          0.831737E-04
      0.485000          0.809570E-04
      0.490000          0.791158E-04
      0.495000          0.775980E-04
      0.500000          0.762814E-04
