 I_abs(s)[cm^-1]/c[mg/ml]
       0.00000          0.119012E-01
      0.500000E-02      0.116005E-01
      0.100000E-01      0.107574E-01
      0.150000E-01      0.953120E-02
      0.200000E-01      0.813474E-02
      0.250000E-01      0.677631E-02
      0.300000E-01      0.560948E-02
      0.350000E-01      0.470685E-02
      0.400000E-01      0.406254E-02
      0.450000E-01      0.361733E-02
      0.500000E-01      0.329314E-02
      0.550000E-01      0.302295E-02
      0.600000E-01      0.276700E-02
      0.650000E-01      0.251362E-02
      0.700000E-01      0.226935E-02
      0.750000E-01      0.204607E-02
      0.800000E-01      0.185141E-02
      0.850000E-01      0.168546E-02
      0.900000E-01      0.154275E-02
      0.950000E-01      0.141656E-02
      0.100000          0.130240E-02
      0.105000          0.119902E-02
      0.110000          0.110725E-02
      0.115000          0.102797E-02
      0.120000          0.960620E-03
      0.125000          0.902943E-03
      0.130000          0.851881E-03
      0.135000          0.804813E-03
      0.140000          0.760461E-03
      0.145000          0.719056E-03
      0.150000          0.681809E-03
      0.155000          0.650036E-03
      0.160000          0.624366E-03
      0.165000          0.604354E-03
      0.170000          0.588569E-03
      0.175000          0.575081E-03
      0.180000          0.562066E-03
      0.185000          0.548284E-03
      0.190000          0.533242E-03
      0.195000          0.517037E-03
      0.200000          0.500015E-03
      0.205000          0.482483E-03
      0.210000          0.464607E-03
      0.215000          0.446518E-03
      0.220000          0.428490E-03
      0.225000          0.411008E-03
      0.230000          0.394629E-03
      0.235000          0.379721E-03
      0.240000          0.366233E-03
      0.245000          0.353711E-03
      0.250000          0.341544E-03
      0.255000          0.329326E-03
      0.260000          0.317082E-03
      0.265000          0.305193E-03
      0.270000          0.294075E-03
      0.275000          0.283804E-03
      0.280000          0.273970E-03
      0.285000          0.263885E-03
      0.290000          0.253033E-03
      0.295000          0.241493E-03
      0.300000          0.230038E-03
      0.305000          0.219812E-03
      0.310000          0.211724E-03
      0.315000          0.205918E-03
      0.320000          0.201606E-03
      0.325000          0.197396E-03
      0.330000          0.191936E-03
      0.335000          0.184548E-03
      0.340000          0.175523E-03
      0.345000          0.165948E-03
      0.350000          0.157171E-03
      0.355000          0.150205E-03
      0.360000          0.145339E-03
      0.365000          0.142126E-03
      0.370000          0.139679E-03
      0.375000          0.137104E-03
      0.380000          0.133840E-03
      0.385000          0.129791E-03
      0.390000          0.125230E-03
      0.395000          0.120587E-03
      0.400000          0.116239E-03
      0.405000          0.112386E-03
      0.410000          0.109051E-03
      0.415000          0.106146E-03
      0.420000          0.103572E-03
      0.425000          0.101276E-03
      0.430000          0.992533E-04
      0.435000          0.975054E-04
      0.440000          0.959837E-04
      0.445000          0.945566E-04
      0.450000          0.930280E-04
      0.455000          0.912036E-04
      0.460000          0.889737E-04
      0.465000          0.863690E-04
      0.470000          0.835528E-04
      0.475000          0.807481E-04
      0.480000          0.781363E-04
      0.485000          0.757829E-04
      0.490000          0.736327E-04
      0.495000          0.715773E-04
      0.500000          0.695494E-04
