 I_abs(s)[cm^-1]/c[mg/ml]
       0.00000          0.136161E-01
      0.500000E-02      0.134973E-01
      0.100000E-01      0.131485E-01
      0.150000E-01      0.125919E-01
      0.200000E-01      0.118617E-01
      0.250000E-01      0.110015E-01
      0.300000E-01      0.100597E-01
      0.350000E-01      0.908524E-02
      0.400000E-01      0.812359E-02
      0.450000E-01      0.721313E-02
      0.500000E-01      0.638264E-02
      0.550000E-01      0.565007E-02
      0.600000E-01      0.502242E-02
      0.650000E-01      0.449685E-02
      0.700000E-01      0.406275E-02
      0.750000E-01      0.370424E-02
      0.800000E-01      0.340306E-02
      0.850000E-01      0.314116E-02
      0.900000E-01      0.290289E-02
      0.950000E-01      0.267649E-02
      0.100000          0.245484E-02
      0.105000          0.223537E-02
      0.110000          0.201939E-02
      0.115000          0.181095E-02
      0.120000          0.161547E-02
      0.125000          0.143842E-02
      0.130000          0.128411E-02
      0.135000          0.115496E-02
      0.140000          0.105116E-02
      0.145000          0.970685E-03
      0.150000          0.909755E-03
      0.155000          0.863496E-03
      0.160000          0.826699E-03
      0.165000          0.794560E-03
      0.170000          0.763264E-03
      0.175000          0.730343E-03
      0.180000          0.694788E-03
      0.185000          0.656911E-03
      0.190000          0.618024E-03
      0.195000          0.579996E-03
      0.200000          0.544791E-03
      0.205000          0.514047E-03
      0.210000          0.488775E-03
      0.215000          0.469202E-03
      0.220000          0.454769E-03
      0.225000          0.444267E-03
      0.230000          0.436076E-03
      0.235000          0.428446E-03
      0.240000          0.419780E-03
      0.245000          0.408860E-03
      0.250000          0.395005E-03
      0.255000          0.378123E-03
      0.260000          0.358667E-03
      0.265000          0.337525E-03
      0.270000          0.315842E-03
      0.275000          0.294835E-03
      0.280000          0.275609E-03
      0.285000          0.259018E-03
      0.290000          0.245566E-03
      0.295000          0.235374E-03
      0.300000          0.228208E-03
      0.305000          0.223537E-03
      0.310000          0.220642E-03
      0.315000          0.218717E-03
      0.320000          0.216985E-03
      0.325000          0.214785E-03
      0.330000          0.211636E-03
      0.335000          0.207273E-03
      0.340000          0.201648E-03
      0.345000          0.194909E-03
      0.350000          0.187354E-03
      0.355000          0.179381E-03
      0.360000          0.171425E-03
      0.365000          0.163901E-03
      0.370000          0.157158E-03
      0.375000          0.151443E-03
      0.380000          0.146877E-03
      0.385000          0.143457E-03
      0.390000          0.141057E-03
      0.395000          0.139457E-03
      0.400000          0.138370E-03
      0.405000          0.137485E-03
      0.410000          0.136496E-03
      0.415000          0.135149E-03
      0.420000          0.133259E-03
      0.425000          0.130737E-03
      0.430000          0.127589E-03
      0.435000          0.123914E-03
      0.440000          0.119882E-03
      0.445000          0.115709E-03
      0.450000          0.111623E-03
      0.455000          0.107835E-03
      0.460000          0.104505E-03
      0.465000          0.101728E-03
      0.470000          0.995220E-04
      0.475000          0.978306E-04
      0.480000          0.965369E-04
      0.485000          0.954865E-04
      0.490000          0.945142E-04
      0.495000          0.934714E-04
      0.500000          0.922503E-04
