 I_abs(s)[cm^-1]/c[mg/ml]
       0.00000          0.120812E-01
      0.500000E-02      0.118363E-01
      0.100000E-01      0.111388E-01
      0.150000E-01      0.100922E-01
      0.200000E-01      0.884223E-02
      0.250000E-01      0.754511E-02
      0.300000E-01      0.633623E-02
      0.350000E-01      0.530707E-02
      0.400000E-01      0.449571E-02
      0.450000E-01      0.389153E-02
      0.500000E-01      0.345056E-02
      0.550000E-01      0.311564E-02
      0.600000E-01      0.283482E-02
      0.650000E-01      0.257316E-02
      0.700000E-01      0.231618E-02
      0.750000E-01      0.206587E-02
      0.800000E-01      0.183268E-02
      0.850000E-01      0.162724E-02
      0.900000E-01      0.145487E-02
      0.950000E-01      0.131419E-02
      0.100000          0.119911E-02
      0.105000          0.110262E-02
      0.110000          0.102004E-02
      0.115000          0.950372E-03
      0.120000          0.895471E-03
      0.125000          0.857692E-03
      0.130000          0.837388E-03
      0.135000          0.831477E-03
      0.140000          0.833689E-03
      0.145000          0.836301E-03
      0.150000          0.832517E-03
      0.155000          0.818462E-03
      0.160000          0.793994E-03
      0.165000          0.762142E-03
      0.170000          0.727502E-03
      0.175000          0.694357E-03
      0.180000          0.665257E-03
      0.185000          0.640519E-03
      0.190000          0.618701E-03
      0.195000          0.597660E-03
      0.200000          0.575684E-03
      0.205000          0.552212E-03
      0.210000          0.527919E-03
      0.215000          0.504250E-03
      0.220000          0.482684E-03
      0.225000          0.464091E-03
      0.230000          0.448427E-03
      0.235000          0.434833E-03
      0.240000          0.422043E-03
      0.245000          0.408869E-03
      0.250000          0.394578E-03
      0.255000          0.379032E-03
      0.260000          0.362603E-03
      0.265000          0.345943E-03
      0.270000          0.329735E-03
      0.275000          0.314512E-03
      0.280000          0.300569E-03
      0.285000          0.287971E-03
      0.290000          0.276591E-03
      0.295000          0.266169E-03
      0.300000          0.256365E-03
      0.305000          0.246824E-03
      0.310000          0.237249E-03
      0.315000          0.227494E-03
      0.320000          0.217624E-03
      0.325000          0.207930E-03
      0.330000          0.198857E-03
      0.335000          0.190872E-03
      0.340000          0.184300E-03
      0.345000          0.179203E-03
      0.350000          0.175337E-03
      0.355000          0.172214E-03
      0.360000          0.169251E-03
      0.365000          0.165930E-03
      0.370000          0.161930E-03
      0.375000          0.157167E-03
      0.380000          0.151760E-03
      0.385000          0.145926E-03
      0.390000          0.139891E-03
      0.395000          0.133826E-03
      0.400000          0.127849E-03
      0.405000          0.122059E-03
      0.410000          0.116584E-03
      0.415000          0.111587E-03
      0.420000          0.107229E-03
      0.425000          0.103604E-03
      0.430000          0.100673E-03
      0.435000          0.982446E-04
      0.440000          0.960215E-04
      0.445000          0.936956E-04
      0.450000          0.910584E-04
      0.455000          0.880768E-04
      0.460000          0.848986E-04
      0.465000          0.817841E-04
      0.470000          0.789918E-04
      0.475000          0.766687E-04
      0.480000          0.747922E-04
      0.485000          0.731873E-04
      0.490000          0.716103E-04
      0.495000          0.698590E-04
      0.500000          0.678599E-04
