 I_abs(s)[cm^-1]/c[mg/ml]
       0.00000          0.121174E-01
      0.500000E-02      0.118937E-01
      0.100000E-01      0.112549E-01
      0.150000E-01      0.102901E-01
      0.200000E-01      0.912491E-02
      0.250000E-01      0.789487E-02
      0.300000E-01      0.671862E-02
      0.350000E-01      0.567905E-02
      0.400000E-01      0.481578E-02
      0.450000E-01      0.412915E-02
      0.500000E-01      0.359260E-02
      0.550000E-01      0.316829E-02
      0.600000E-01      0.282068E-02
      0.650000E-01      0.252473E-02
      0.700000E-01      0.226771E-02
      0.750000E-01      0.204597E-02
      0.800000E-01      0.185950E-02
      0.850000E-01      0.170713E-02
      0.900000E-01      0.158404E-02
      0.950000E-01      0.148213E-02
      0.100000          0.139232E-02
      0.105000          0.130721E-02
      0.110000          0.122291E-02
      0.115000          0.113916E-02
      0.120000          0.105823E-02
      0.125000          0.983027E-03
      0.130000          0.915550E-03
      0.135000          0.856099E-03
      0.140000          0.803500E-03
      0.145000          0.755923E-03
      0.150000          0.711831E-03
      0.155000          0.670573E-03
      0.160000          0.632448E-03
      0.165000          0.598327E-03
      0.170000          0.569088E-03
      0.175000          0.545176E-03
      0.180000          0.526425E-03
      0.185000          0.512156E-03
      0.190000          0.501418E-03
      0.195000          0.493225E-03
      0.200000          0.486679E-03
      0.205000          0.480983E-03
      0.210000          0.475397E-03
      0.215000          0.469223E-03
      0.220000          0.461855E-03
      0.225000          0.452879E-03
      0.230000          0.442167E-03
      0.235000          0.429898E-03
      0.240000          0.416488E-03
      0.245000          0.402444E-03
      0.250000          0.388210E-03
      0.255000          0.374062E-03
      0.260000          0.360095E-03
      0.265000          0.346283E-03
      0.270000          0.332587E-03
      0.275000          0.319040E-03
      0.280000          0.305782E-03
      0.285000          0.293032E-03
      0.290000          0.281025E-03
      0.295000          0.269938E-03
      0.300000          0.259845E-03
      0.305000          0.250710E-03
      0.310000          0.242410E-03
      0.315000          0.234772E-03
      0.320000          0.227607E-03
      0.325000          0.220733E-03
      0.330000          0.213994E-03
      0.335000          0.207277E-03
      0.340000          0.200528E-03
      0.345000          0.193775E-03
      0.350000          0.187130E-03
      0.355000          0.180776E-03
      0.360000          0.174926E-03
      0.365000          0.169768E-03
      0.370000          0.165412E-03
      0.375000          0.161858E-03
      0.380000          0.158993E-03
      0.385000          0.156616E-03
      0.390000          0.154487E-03
      0.395000          0.152376E-03
      0.400000          0.150104E-03
      0.405000          0.147565E-03
      0.410000          0.144725E-03
      0.415000          0.141616E-03
      0.420000          0.138312E-03
      0.425000          0.134904E-03
      0.430000          0.131474E-03
      0.435000          0.128071E-03
      0.440000          0.124698E-03
      0.445000          0.121303E-03
      0.450000          0.117798E-03
      0.455000          0.114088E-03
      0.460000          0.110102E-03
      0.465000          0.105831E-03
      0.470000          0.101336E-03
      0.475000          0.967390E-04
      0.480000          0.921896E-04
      0.485000          0.878268E-04
      0.490000          0.837444E-04
      0.495000          0.799792E-04
      0.500000          0.765239E-04
