 I_abs(s)[cm^-1]/c[mg/ml]
       0.00000          0.126221E-01
      0.500000E-02      0.123540E-01
      0.100000E-01      0.115977E-01
      0.150000E-01      0.104824E-01
      0.200000E-01      0.918204E-02
      0.250000E-01      0.786829E-02
      0.300000E-01      0.667202E-02
      0.350000E-01      0.566307E-02
      0.400000E-01      0.485252E-02
      0.450000E-01      0.421172E-02
      0.500000E-01      0.369714E-02
      0.550000E-01      0.327053E-02
      0.600000E-01      0.290834E-02
      0.650000E-01      0.260060E-02
      0.700000E-01      0.234386E-02
      0.750000E-01      0.213395E-02
      0.800000E-01      0.196273E-02
      0.850000E-01      0.181920E-02
      0.900000E-01      0.169304E-02
      0.950000E-01      0.157770E-02
      0.100000          0.147112E-02
      0.105000          0.137414E-02
      0.110000          0.128794E-02
      0.115000          0.121221E-02
      0.120000          0.114479E-02
      0.125000          0.108270E-02
      0.130000          0.102347E-02
      0.135000          0.966029E-03
      0.140000          0.910559E-03
      0.145000          0.857874E-03
      0.150000          0.808711E-03
      0.155000          0.763466E-03
      0.160000          0.722338E-03
      0.165000          0.685613E-03
      0.170000          0.653711E-03
      0.175000          0.626908E-03
      0.180000          0.604898E-03
      0.185000          0.586536E-03
      0.190000          0.569974E-03
      0.195000          0.553185E-03
      0.200000          0.534597E-03
      0.205000          0.513548E-03
      0.210000          0.490339E-03
      0.215000          0.465925E-03
      0.220000          0.441432E-03
      0.225000          0.417757E-03
      0.230000          0.395392E-03
      0.235000          0.374485E-03
      0.240000          0.355028E-03
      0.245000          0.337032E-03
      0.250000          0.320584E-03
      0.255000          0.305798E-03
      0.260000          0.292709E-03
      0.265000          0.281188E-03
      0.270000          0.270926E-03
      0.275000          0.261498E-03
      0.280000          0.252475E-03
      0.285000          0.243527E-03
      0.290000          0.234492E-03
      0.295000          0.225391E-03
      0.300000          0.216391E-03
      0.305000          0.207747E-03
      0.310000          0.199732E-03
      0.315000          0.192578E-03
      0.320000          0.186421E-03
      0.325000          0.181265E-03
      0.330000          0.176954E-03
      0.335000          0.173188E-03
      0.340000          0.169566E-03
      0.345000          0.165687E-03
      0.350000          0.161255E-03
      0.355000          0.156166E-03
      0.360000          0.150521E-03
      0.365000          0.144572E-03
      0.370000          0.138602E-03
      0.375000          0.132824E-03
      0.380000          0.127329E-03
      0.385000          0.122132E-03
      0.390000          0.117269E-03
      0.395000          0.112887E-03
      0.400000          0.109249E-03
      0.405000          0.106649E-03
      0.410000          0.105262E-03
      0.415000          0.105011E-03
      0.420000          0.105532E-03
      0.425000          0.106269E-03
      0.430000          0.106644E-03
      0.435000          0.106239E-03
      0.440000          0.104895E-03
      0.445000          0.102700E-03
      0.450000          0.998893E-04
      0.455000          0.967255E-04
      0.460000          0.934156E-04
      0.465000          0.900946E-04
      0.470000          0.868573E-04
      0.475000          0.837948E-04
      0.480000          0.810033E-04
      0.485000          0.785589E-04
      0.490000          0.764830E-04
      0.495000          0.747259E-04
      0.500000          0.731838E-04
