 I_abs(s)[cm^-1]/c[mg/ml]
       0.00000          0.124527E-01
      0.500000E-02      0.122677E-01
      0.100000E-01      0.117314E-01
      0.150000E-01      0.108970E-01
      0.200000E-01      0.984454E-02
      0.250000E-01      0.866875E-02
      0.300000E-01      0.746619E-02
      0.350000E-01      0.632262E-02
      0.400000E-01      0.530329E-02
      0.450000E-01      0.444739E-02
      0.500000E-01      0.376726E-02
      0.550000E-01      0.325189E-02
      0.600000E-01      0.287358E-02
      0.650000E-01      0.259619E-02
      0.700000E-01      0.238310E-02
      0.750000E-01      0.220368E-02
      0.800000E-01      0.203708E-02
      0.850000E-01      0.187323E-02
      0.900000E-01      0.171139E-02
      0.950000E-01      0.155703E-02
      0.100000          0.141805E-02
      0.105000          0.130133E-02
      0.110000          0.121043E-02
      0.115000          0.114457E-02
      0.120000          0.109907E-02
      0.125000          0.106673E-02
      0.130000          0.103968E-02
      0.135000          0.101112E-02
      0.140000          0.976571E-03
      0.145000          0.934359E-03
      0.150000          0.885368E-03
      0.155000          0.832280E-03
      0.160000          0.778545E-03
      0.165000          0.727403E-03
      0.170000          0.681191E-03
      0.175000          0.641025E-03
      0.180000          0.606863E-03
      0.185000          0.577839E-03
      0.190000          0.552707E-03
      0.195000          0.530253E-03
      0.200000          0.509576E-03
      0.205000          0.490185E-03
      0.210000          0.471950E-03
      0.215000          0.454949E-03
      0.220000          0.439307E-03
      0.225000          0.425060E-03
      0.230000          0.412107E-03
      0.235000          0.400222E-03
      0.240000          0.389118E-03
      0.245000          0.378514E-03
      0.250000          0.368188E-03
      0.255000          0.357998E-03
      0.260000          0.347859E-03
      0.265000          0.337722E-03
      0.270000          0.327544E-03
      0.275000          0.317287E-03
      0.280000          0.306941E-03
      0.285000          0.296552E-03
      0.290000          0.286257E-03
      0.295000          0.276281E-03
      0.300000          0.266912E-03
      0.305000          0.258438E-03
      0.310000          0.251062E-03
      0.315000          0.244836E-03
      0.320000          0.239614E-03
      0.325000          0.235063E-03
      0.330000          0.230721E-03
      0.335000          0.226102E-03
      0.340000          0.220803E-03
      0.345000          0.214605E-03
      0.350000          0.207523E-03
      0.355000          0.199800E-03
      0.360000          0.191844E-03
      0.365000          0.184120E-03
      0.370000          0.177039E-03
      0.375000          0.170853E-03
      0.380000          0.165605E-03
      0.385000          0.161131E-03
      0.390000          0.157114E-03
      0.395000          0.153178E-03
      0.400000          0.148991E-03
      0.405000          0.144347E-03
      0.410000          0.139220E-03
      0.415000          0.133756E-03
      0.420000          0.128236E-03
      0.425000          0.122997E-03
      0.430000          0.118352E-03
      0.435000          0.114517E-03
      0.440000          0.111571E-03
      0.445000          0.109452E-03
      0.450000          0.107980E-03
      0.455000          0.106911E-03
      0.460000          0.105988E-03
      0.465000          0.104993E-03
      0.470000          0.103777E-03
      0.475000          0.102265E-03
      0.480000          0.100448E-03
      0.485000          0.983567E-04
      0.490000          0.960398E-04
      0.495000          0.935422E-04
      0.500000          0.908974E-04
