 I_abs(s)[cm^-1]/c[mg/ml]
       0.00000          0.118582E-01
      0.500000E-02      0.115782E-01
      0.100000E-01      0.107872E-01
      0.150000E-01      0.961893E-02
      0.200000E-01      0.825707E-02
      0.250000E-01      0.688948E-02
      0.300000E-01      0.566666E-02
      0.350000E-01      0.467563E-02
      0.400000E-01      0.393521E-02
      0.450000E-01      0.341045E-02
      0.500000E-01      0.303840E-02
      0.550000E-01      0.275462E-02
      0.600000E-01      0.251198E-02
      0.650000E-01      0.228754E-02
      0.700000E-01      0.207861E-02
      0.750000E-01      0.189268E-02
      0.800000E-01      0.173712E-02
      0.850000E-01      0.161276E-02
      0.900000E-01      0.151309E-02
      0.950000E-01      0.142756E-02
      0.100000          0.134640E-02
      0.105000          0.126415E-02
      0.110000          0.118058E-02
      0.115000          0.109908E-02
      0.120000          0.102395E-02
      0.125000          0.958005E-03
      0.130000          0.901529E-03
      0.135000          0.852700E-03
      0.140000          0.808855E-03
      0.145000          0.767795E-03
      0.150000          0.728499E-03
      0.155000          0.691082E-03
      0.160000          0.656239E-03
      0.165000          0.624584E-03
      0.170000          0.596229E-03
      0.175000          0.570712E-03
      0.180000          0.547216E-03
      0.185000          0.524880E-03
      0.190000          0.503079E-03
      0.195000          0.481573E-03
      0.200000          0.460531E-03
      0.205000          0.440460E-03
      0.210000          0.422042E-03
      0.215000          0.405929E-03
      0.220000          0.392503E-03
      0.225000          0.381690E-03
      0.230000          0.372897E-03
      0.235000          0.365125E-03
      0.240000          0.357238E-03
      0.245000          0.348304E-03
      0.250000          0.337863E-03
      0.255000          0.326022E-03
      0.260000          0.313337E-03
      0.265000          0.300540E-03
      0.270000          0.288232E-03
      0.275000          0.276669E-03
      0.280000          0.265719E-03
      0.285000          0.254982E-03
      0.290000          0.244006E-03
      0.295000          0.232494E-03
      0.300000          0.220429E-03
      0.305000          0.208094E-03
      0.310000          0.195993E-03
      0.315000          0.184728E-03
      0.320000          0.174882E-03
      0.325000          0.166913E-03
      0.330000          0.161090E-03
      0.335000          0.157455E-03
      0.340000          0.155806E-03
      0.345000          0.155709E-03
      0.350000          0.156542E-03
      0.355000          0.157577E-03
      0.360000          0.158086E-03
      0.365000          0.157458E-03
      0.370000          0.155303E-03
      0.375000          0.151518E-03
      0.380000          0.146298E-03
      0.385000          0.140087E-03
      0.390000          0.133484E-03
      0.395000          0.127107E-03
      0.400000          0.121476E-03
      0.405000          0.116909E-03
      0.410000          0.113492E-03
      0.415000          0.111104E-03
      0.420000          0.109487E-03
      0.425000          0.108344E-03
      0.430000          0.107410E-03
      0.435000          0.106488E-03
      0.440000          0.105443E-03
      0.445000          0.104170E-03
      0.450000          0.102571E-03
      0.455000          0.100556E-03
      0.460000          0.980690E-04
      0.465000          0.951240E-04
      0.470000          0.918214E-04
      0.475000          0.883274E-04
      0.480000          0.848203E-04
      0.485000          0.814274E-04
      0.490000          0.781844E-04
      0.495000          0.750400E-04
      0.500000          0.719044E-04
