 I_abs(s)[cm^-1]/c[mg/ml]
       0.00000          0.116514E-01
      0.500000E-02      0.113615E-01
      0.100000E-01      0.105495E-01
      0.150000E-01      0.937111E-02
      0.200000E-01      0.803266E-02
      0.250000E-01      0.673349E-02
      0.300000E-01      0.561767E-02
      0.350000E-01      0.475062E-02
      0.400000E-01      0.412416E-02
      0.450000E-01      0.368229E-02
      0.500000E-01      0.335406E-02
      0.550000E-01      0.307998E-02
      0.600000E-01      0.282494E-02
      0.650000E-01      0.257747E-02
      0.700000E-01      0.234096E-02
      0.750000E-01      0.212354E-02
      0.800000E-01      0.193119E-02
      0.850000E-01      0.176549E-02
      0.900000E-01      0.162441E-02
      0.950000E-01      0.150412E-02
      0.100000          0.140016E-02
      0.105000          0.130809E-02
      0.110000          0.122368E-02
      0.115000          0.114353E-02
      0.120000          0.106568E-02
      0.125000          0.990001E-03
      0.130000          0.917858E-03
      0.135000          0.851293E-03
      0.140000          0.792012E-03
      0.145000          0.740753E-03
      0.150000          0.697201E-03
      0.155000          0.660326E-03
      0.160000          0.628793E-03
      0.165000          0.601252E-03
      0.170000          0.576462E-03
      0.175000          0.553399E-03
      0.180000          0.531413E-03
      0.185000          0.510372E-03
      0.190000          0.490638E-03
      0.195000          0.472780E-03
      0.200000          0.457141E-03
      0.205000          0.443494E-03
      0.210000          0.431024E-03
      0.215000          0.418651E-03
      0.220000          0.405504E-03
      0.225000          0.391243E-03
      0.230000          0.376060E-03
      0.235000          0.360388E-03
      0.240000          0.344564E-03
      0.245000          0.328689E-03
      0.250000          0.312761E-03
      0.255000          0.296943E-03
      0.260000          0.281734E-03
      0.265000          0.267880E-03
      0.270000          0.256050E-03
      0.275000          0.246483E-03
      0.280000          0.238828E-03
      0.285000          0.232288E-03
      0.290000          0.225982E-03
      0.295000          0.219311E-03
      0.300000          0.212144E-03
      0.305000          0.204751E-03
      0.310000          0.197555E-03
      0.315000          0.190880E-03
      0.320000          0.184821E-03
      0.325000          0.179261E-03
      0.330000          0.173995E-03
      0.335000          0.168853E-03
      0.340000          0.163752E-03
      0.345000          0.158678E-03
      0.350000          0.153630E-03
      0.355000          0.148583E-03
      0.360000          0.143494E-03
      0.365000          0.138351E-03
      0.370000          0.133227E-03
      0.375000          0.128310E-03
      0.380000          0.123876E-03
      0.385000          0.120223E-03
      0.390000          0.117564E-03
      0.395000          0.115941E-03
      0.400000          0.115195E-03
      0.405000          0.115002E-03
      0.410000          0.114976E-03
      0.415000          0.114777E-03
      0.420000          0.114199E-03
      0.425000          0.113173E-03
      0.430000          0.111717E-03
      0.435000          0.109858E-03
      0.440000          0.107589E-03
      0.445000          0.104876E-03
      0.450000          0.101712E-03
      0.455000          0.981613E-04
      0.460000          0.943749E-04
      0.465000          0.905410E-04
      0.470000          0.868171E-04
      0.475000          0.832780E-04
      0.480000          0.799151E-04
      0.485000          0.766817E-04
      0.490000          0.735506E-04
      0.495000          0.705459E-04
      0.500000          0.677316E-04
