 I_abs(s)[cm^-1]/c[mg/ml]
       0.00000          0.121391E-01
      0.500000E-02      0.118677E-01
      0.100000E-01      0.110999E-01
      0.150000E-01      0.996195E-02
      0.200000E-01      0.862497E-02
      0.250000E-01      0.726143E-02
      0.300000E-01      0.600788E-02
      0.350000E-01      0.494471E-02
      0.400000E-01      0.409594E-02
      0.450000E-01      0.344411E-02
      0.500000E-01      0.295100E-02
      0.550000E-01      0.257555E-02
      0.600000E-01      0.228405E-02
      0.650000E-01      0.205266E-02
      0.700000E-01      0.186531E-02
      0.750000E-01      0.171071E-02
      0.800000E-01      0.158054E-02
      0.850000E-01      0.146898E-02
      0.900000E-01      0.137258E-02
      0.950000E-01      0.128941E-02
      0.100000          0.121775E-02
      0.105000          0.115482E-02
      0.110000          0.109669E-02
      0.115000          0.103929E-02
      0.120000          0.980083E-03
      0.125000          0.919219E-03
      0.130000          0.859557E-03
      0.135000          0.805368E-03
      0.140000          0.760466E-03
      0.145000          0.726634E-03
      0.150000          0.703015E-03
      0.155000          0.686580E-03
      0.160000          0.673307E-03
      0.165000          0.659467E-03
      0.170000          0.642559E-03
      0.175000          0.621650E-03
      0.180000          0.597218E-03
      0.185000          0.570676E-03
      0.190000          0.543804E-03
      0.195000          0.518251E-03
      0.200000          0.495195E-03
      0.205000          0.475164E-03
      0.210000          0.458043E-03
      0.215000          0.443204E-03
      0.220000          0.429737E-03
      0.225000          0.416712E-03
      0.230000          0.403424E-03
      0.235000          0.389551E-03
      0.240000          0.375202E-03
      0.245000          0.360813E-03
      0.250000          0.346932E-03
      0.255000          0.333959E-03
      0.260000          0.321943E-03
      0.265000          0.310537E-03
      0.270000          0.299132E-03
      0.275000          0.287123E-03
      0.280000          0.274185E-03
      0.285000          0.260430E-03
      0.290000          0.246372E-03
      0.295000          0.232733E-03
      0.300000          0.220179E-03
      0.305000          0.209110E-03
      0.310000          0.199590E-03
      0.315000          0.191415E-03
      0.320000          0.184263E-03
      0.325000          0.177848E-03
      0.330000          0.172020E-03
      0.335000          0.166774E-03
      0.340000          0.162192E-03
      0.345000          0.158347E-03
      0.350000          0.155209E-03
      0.355000          0.152587E-03
      0.360000          0.150139E-03
      0.365000          0.147454E-03
      0.370000          0.144183E-03
      0.375000          0.140176E-03
      0.380000          0.135561E-03
      0.385000          0.130719E-03
      0.390000          0.126150E-03
      0.395000          0.122287E-03
      0.400000          0.119328E-03
      0.405000          0.117171E-03
      0.410000          0.115464E-03
      0.415000          0.113763E-03
      0.420000          0.111707E-03
      0.425000          0.109146E-03
      0.430000          0.106168E-03
      0.435000          0.103021E-03
      0.440000          0.999967E-04
      0.445000          0.973049E-04
      0.450000          0.950163E-04
      0.455000          0.930631E-04
      0.460000          0.912923E-04
      0.465000          0.895330E-04
      0.470000          0.876486E-04
      0.475000          0.855607E-04
      0.480000          0.832473E-04
      0.485000          0.807257E-04
      0.490000          0.780332E-04
      0.495000          0.752112E-04
      0.500000          0.722965E-04
