 I_abs(s)[cm^-1]/c[mg/ml]
       0.00000          0.116585E-01
      0.500000E-02      0.113805E-01
      0.100000E-01      0.105972E-01
      0.150000E-01      0.944789E-02
      0.200000E-01      0.812172E-02
      0.250000E-01      0.680964E-02
      0.300000E-01      0.565995E-02
      0.350000E-01      0.475164E-02
      0.400000E-01      0.409127E-02
      0.450000E-01      0.363092E-02
      0.500000E-01      0.329800E-02
      0.550000E-01      0.302498E-02
      0.600000E-01      0.276908E-02
      0.650000E-01      0.251732E-02
      0.700000E-01      0.227872E-02
      0.750000E-01      0.206993E-02
      0.800000E-01      0.190178E-02
      0.850000E-01      0.177247E-02
      0.900000E-01      0.166894E-02
      0.950000E-01      0.157397E-02
      0.100000          0.147460E-02
      0.105000          0.136734E-02
      0.110000          0.125812E-02
      0.115000          0.115757E-02
      0.120000          0.107472E-02
      0.125000          0.101221E-02
      0.130000          0.965292E-03
      0.135000          0.924782E-03
      0.140000          0.881897E-03
      0.145000          0.832562E-03
      0.150000          0.778994E-03
      0.155000          0.728027E-03
      0.160000          0.687236E-03
      0.165000          0.660909E-03
      0.170000          0.647813E-03
      0.175000          0.641686E-03
      0.180000          0.634026E-03
      0.185000          0.617714E-03
      0.190000          0.589769E-03
      0.195000          0.552079E-03
      0.200000          0.510019E-03
      0.205000          0.469818E-03
      0.210000          0.435993E-03
      0.215000          0.409973E-03
      0.220000          0.390314E-03
      0.225000          0.374141E-03
      0.230000          0.358919E-03
      0.235000          0.343656E-03
      0.240000          0.329048E-03
      0.245000          0.316660E-03
      0.250000          0.307706E-03
      0.255000          0.302132E-03
      0.260000          0.298440E-03
      0.265000          0.294310E-03
      0.270000          0.287638E-03
      0.275000          0.277466E-03
      0.280000          0.264365E-03
      0.285000          0.250123E-03
      0.290000          0.236951E-03
      0.295000          0.226578E-03
      0.300000          0.219649E-03
      0.305000          0.215629E-03
      0.310000          0.213176E-03
      0.315000          0.210772E-03
      0.320000          0.207295E-03
      0.325000          0.202319E-03
      0.330000          0.196084E-03
      0.335000          0.189210E-03
      0.340000          0.182334E-03
      0.345000          0.175837E-03
      0.350000          0.169758E-03
      0.355000          0.163877E-03
      0.360000          0.157904E-03
      0.365000          0.151660E-03
      0.370000          0.145177E-03
      0.375000          0.138691E-03
      0.380000          0.132535E-03
      0.385000          0.127011E-03
      0.390000          0.122271E-03
      0.395000          0.118269E-03
      0.400000          0.114796E-03
      0.405000          0.111579E-03
      0.410000          0.108397E-03
      0.415000          0.105179E-03
      0.420000          0.102022E-03
      0.425000          0.991387E-04
      0.430000          0.967287E-04
      0.435000          0.948484E-04
      0.440000          0.933327E-04
      0.445000          0.918171E-04
      0.450000          0.898628E-04
      0.455000          0.871408E-04
      0.460000          0.835926E-04
      0.465000          0.794928E-04
      0.470000          0.753727E-04
      0.475000          0.718285E-04
      0.480000          0.692927E-04
      0.485000          0.678672E-04
      0.490000          0.672938E-04
      0.495000          0.670754E-04
      0.500000          0.666930E-04
