 I_abs(s)[cm^-1]/c[mg/ml]
       0.00000          0.118940E-01
      0.500000E-02      0.116129E-01
      0.100000E-01      0.108214E-01
      0.150000E-01      0.966002E-02
      0.200000E-01      0.831898E-02
      0.250000E-01      0.698814E-02
      0.300000E-01      0.581307E-02
      0.350000E-01      0.487006E-02
      0.400000E-01      0.416551E-02
      0.450000E-01      0.365555E-02
      0.500000E-01      0.327532E-02
      0.550000E-01      0.296605E-02
      0.600000E-01      0.269086E-02
      0.650000E-01      0.243698E-02
      0.700000E-01      0.220748E-02
      0.750000E-01      0.200954E-02
      0.800000E-01      0.184538E-02
      0.850000E-01      0.170947E-02
      0.900000E-01      0.159146E-02
      0.950000E-01      0.148162E-02
      0.100000          0.137507E-02
      0.105000          0.127265E-02
      0.110000          0.117847E-02
      0.115000          0.109625E-02
      0.120000          0.102655E-02
      0.125000          0.966565E-03
      0.130000          0.911906E-03
      0.135000          0.859272E-03
      0.140000          0.808080E-03
      0.145000          0.760290E-03
      0.150000          0.718662E-03
      0.155000          0.684645E-03
      0.160000          0.657202E-03
      0.165000          0.633206E-03
      0.170000          0.609105E-03
      0.175000          0.582827E-03
      0.180000          0.554832E-03
      0.185000          0.527766E-03
      0.190000          0.504977E-03
      0.195000          0.488736E-03
      0.200000          0.479112E-03
      0.205000          0.474007E-03
      0.210000          0.470203E-03
      0.215000          0.464798E-03
      0.220000          0.456271E-03
      0.225000          0.444719E-03
      0.230000          0.431313E-03
      0.235000          0.417392E-03
      0.240000          0.403722E-03
      0.245000          0.390269E-03
      0.250000          0.376476E-03
      0.255000          0.361765E-03
      0.260000          0.345945E-03
      0.265000          0.329303E-03
      0.270000          0.312404E-03
      0.275000          0.295796E-03
      0.280000          0.279817E-03
      0.285000          0.264608E-03
      0.290000          0.250259E-03
      0.295000          0.236951E-03
      0.300000          0.224953E-03
      0.305000          0.214484E-03
      0.310000          0.205516E-03
      0.315000          0.197691E-03
      0.320000          0.190422E-03
      0.325000          0.183146E-03
      0.330000          0.175590E-03
      0.335000          0.167910E-03
      0.340000          0.160597E-03
      0.345000          0.154223E-03
      0.350000          0.149140E-03
      0.355000          0.145314E-03
      0.360000          0.142366E-03
      0.365000          0.139797E-03
      0.370000          0.137257E-03
      0.375000          0.134720E-03
      0.380000          0.132462E-03
      0.385000          0.130865E-03
      0.390000          0.130147E-03
      0.395000          0.130165E-03
      0.400000          0.130389E-03
      0.405000          0.130066E-03
      0.410000          0.128489E-03
      0.415000          0.125265E-03
      0.420000          0.120457E-03
      0.425000          0.114557E-03
      0.430000          0.108310E-03
      0.435000          0.102471E-03
      0.440000          0.975828E-04
      0.445000          0.938558E-04
      0.450000          0.911717E-04
      0.455000          0.891891E-04
      0.460000          0.874976E-04
      0.465000          0.857581E-04
      0.470000          0.837844E-04
      0.475000          0.815488E-04
      0.480000          0.791273E-04
      0.485000          0.766199E-04
      0.490000          0.740857E-04
      0.495000          0.715207E-04
      0.500000          0.688819E-04
