 I_abs(s)[cm^-1]/c[mg/ml]
       0.00000          0.125262E-01
      0.500000E-02      0.123121E-01
      0.100000E-01      0.116931E-01
      0.150000E-01      0.107353E-01
      0.200000E-01      0.953652E-02
      0.250000E-01      0.821180E-02
      0.300000E-01      0.687573E-02
      0.350000E-01      0.562732E-02
      0.400000E-01      0.453863E-02
      0.450000E-01      0.364940E-02
      0.500000E-01      0.296760E-02
      0.550000E-01      0.247525E-02
      0.600000E-01      0.213733E-02
      0.650000E-01      0.191170E-02
      0.700000E-01      0.175789E-02
      0.750000E-01      0.164322E-02
      0.800000E-01      0.154573E-02
      0.850000E-01      0.145404E-02
      0.900000E-01      0.136501E-02
      0.950000E-01      0.128043E-02
      0.100000          0.120372E-02
      0.105000          0.113749E-02
      0.110000          0.108232E-02
      0.115000          0.103670E-02
      0.120000          0.997692E-03
      0.125000          0.961955E-03
      0.130000          0.926608E-03
      0.135000          0.889741E-03
      0.140000          0.850520E-03
      0.145000          0.808972E-03
      0.150000          0.765663E-03
      0.155000          0.721410E-03
      0.160000          0.677136E-03
      0.165000          0.633863E-03
      0.170000          0.592760E-03
      0.175000          0.555156E-03
      0.180000          0.522437E-03
      0.185000          0.495829E-03
      0.190000          0.476102E-03
      0.195000          0.463303E-03
      0.200000          0.456609E-03
      0.205000          0.454368E-03
      0.210000          0.454344E-03
      0.215000          0.454097E-03
      0.220000          0.451426E-03
      0.225000          0.444754E-03
      0.230000          0.433368E-03
      0.235000          0.417476E-03
      0.240000          0.398077E-03
      0.245000          0.376688E-03
      0.250000          0.355012E-03
      0.255000          0.334607E-03
      0.260000          0.316631E-03
      0.265000          0.301692E-03
      0.270000          0.289825E-03
      0.275000          0.280560E-03
      0.280000          0.273085E-03
      0.285000          0.266441E-03
      0.290000          0.259725E-03
      0.295000          0.252264E-03
      0.300000          0.243737E-03
      0.305000          0.234216E-03
      0.310000          0.224137E-03
      0.315000          0.214185E-03
      0.320000          0.205138E-03
      0.325000          0.197681E-03
      0.330000          0.192248E-03
      0.335000          0.188914E-03
      0.340000          0.187363E-03
      0.345000          0.186951E-03
      0.350000          0.186835E-03
      0.355000          0.186151E-03
      0.360000          0.184182E-03
      0.365000          0.180503E-03
      0.370000          0.175046E-03
      0.375000          0.168091E-03
      0.380000          0.160180E-03
      0.385000          0.151995E-03
      0.390000          0.144206E-03
      0.395000          0.137350E-03
      0.400000          0.131751E-03
      0.405000          0.127489E-03
      0.410000          0.124430E-03
      0.415000          0.122285E-03
      0.420000          0.120694E-03
      0.425000          0.119300E-03
      0.430000          0.117811E-03
      0.435000          0.116034E-03
      0.440000          0.113886E-03
      0.445000          0.111381E-03
      0.450000          0.108611E-03
      0.455000          0.105714E-03
      0.460000          0.102851E-03
      0.465000          0.100175E-03
      0.470000          0.978093E-04
      0.475000          0.958284E-04
      0.480000          0.942446E-04
      0.485000          0.930008E-04
      0.490000          0.919750E-04
      0.495000          0.909966E-04
      0.500000          0.898751E-04
