 I_abs(s)[cm^-1]/c[mg/ml]
       0.00000          0.120379E-01
      0.500000E-02      0.117785E-01
      0.100000E-01      0.110430E-01
      0.150000E-01      0.994892E-02
      0.200000E-01      0.865846E-02
      0.250000E-01      0.734024E-02
      0.300000E-01      0.613323E-02
      0.350000E-01      0.512361E-02
      0.400000E-01      0.433907E-02
      0.450000E-01      0.375926E-02
      0.500000E-01      0.333593E-02
      0.550000E-01      0.301448E-02
      0.600000E-01      0.275019E-02
      0.650000E-01      0.251539E-02
      0.700000E-01      0.229849E-02
      0.750000E-01      0.209806E-02
      0.800000E-01      0.191615E-02
      0.850000E-01      0.175384E-02
      0.900000E-01      0.161004E-02
      0.950000E-01      0.148250E-02
      0.100000          0.136942E-02
      0.105000          0.127017E-02
      0.110000          0.118474E-02
      0.115000          0.111251E-02
      0.120000          0.105117E-02
      0.125000          0.996848E-03
      0.130000          0.945127E-03
      0.135000          0.892617E-03
      0.140000          0.838100E-03
      0.145000          0.782712E-03
      0.150000          0.729119E-03
      0.155000          0.680176E-03
      0.160000          0.637758E-03
      0.165000          0.602249E-03
      0.170000          0.572793E-03
      0.175000          0.547992E-03
      0.180000          0.526591E-03
      0.185000          0.507812E-03
      0.190000          0.491260E-03
      0.195000          0.476618E-03
      0.200000          0.463393E-03
      0.205000          0.450924E-03
      0.210000          0.438608E-03
      0.215000          0.426166E-03
      0.220000          0.413740E-03
      0.225000          0.401723E-03
      0.230000          0.390427E-03
      0.235000          0.379776E-03
      0.240000          0.369238E-03
      0.245000          0.358048E-03
      0.250000          0.345603E-03
      0.255000          0.331831E-03
      0.260000          0.317305E-03
      0.265000          0.303049E-03
      0.270000          0.290133E-03
      0.275000          0.279242E-03
      0.280000          0.270450E-03
      0.285000          0.263267E-03
      0.290000          0.256928E-03
      0.295000          0.250745E-03
      0.300000          0.244363E-03
      0.305000          0.237804E-03
      0.310000          0.231315E-03
      0.315000          0.225132E-03
      0.320000          0.219290E-03
      0.325000          0.213576E-03
      0.330000          0.207617E-03
      0.335000          0.201056E-03
      0.340000          0.193707E-03
      0.345000          0.185617E-03
      0.350000          0.177037E-03
      0.355000          0.168314E-03
      0.360000          0.159788E-03
      0.365000          0.151726E-03
      0.370000          0.144318E-03
      0.375000          0.137698E-03
      0.380000          0.131978E-03
      0.385000          0.127241E-03
      0.390000          0.123514E-03
      0.395000          0.120721E-03
      0.400000          0.118662E-03
      0.405000          0.117026E-03
      0.410000          0.115452E-03
      0.415000          0.113602E-03
      0.420000          0.111251E-03
      0.425000          0.108330E-03
      0.430000          0.104936E-03
      0.435000          0.101297E-03
      0.440000          0.976977E-04
      0.445000          0.944057E-04
      0.450000          0.915980E-04
      0.455000          0.893189E-04
      0.460000          0.874739E-04
      0.465000          0.858603E-04
      0.470000          0.842272E-04
      0.475000          0.823481E-04
      0.480000          0.800848E-04
      0.485000          0.774262E-04
      0.490000          0.744897E-04
      0.495000          0.714849E-04
      0.500000          0.686519E-04
