 I_abs(s)[cm^-1]/c[mg/ml]
       0.00000          0.123721E-01
      0.500000E-02      0.120819E-01
      0.100000E-01      0.112654E-01
      0.150000E-01      0.100685E-01
      0.200000E-01      0.868604E-02
      0.250000E-01      0.730870E-02
      0.300000E-01      0.607890E-02
      0.350000E-01      0.506876E-02
      0.400000E-01      0.428401E-02
      0.450000E-01      0.368656E-02
      0.500000E-01      0.322322E-02
      0.550000E-01      0.284818E-02
      0.600000E-01      0.253309E-02
      0.650000E-01      0.226530E-02
      0.700000E-01      0.204004E-02
      0.750000E-01      0.185298E-02
      0.800000E-01      0.169730E-02
      0.850000E-01      0.156509E-02
      0.900000E-01      0.145039E-02
      0.950000E-01      0.135093E-02
      0.100000          0.126704E-02
      0.105000          0.119894E-02
      0.110000          0.114431E-02
      0.115000          0.109802E-02
      0.120000          0.105403E-02
      0.125000          0.100814E-02
      0.130000          0.959707E-03
      0.135000          0.911251E-03
      0.140000          0.866322E-03
      0.145000          0.827042E-03
      0.150000          0.792832E-03
      0.155000          0.760968E-03
      0.160000          0.728437E-03
      0.165000          0.693823E-03
      0.170000          0.658064E-03
      0.175000          0.623732E-03
      0.180000          0.593413E-03
      0.185000          0.568246E-03
      0.190000          0.547439E-03
      0.195000          0.528926E-03
      0.200000          0.510602E-03
      0.205000          0.491354E-03
      0.210000          0.471318E-03
      0.215000          0.451389E-03
      0.220000          0.432434E-03
      0.225000          0.414774E-03
      0.230000          0.398217E-03
      0.235000          0.382510E-03
      0.240000          0.367791E-03
      0.245000          0.354666E-03
      0.250000          0.343815E-03
      0.255000          0.335395E-03
      0.260000          0.328632E-03
      0.265000          0.321920E-03
      0.270000          0.313421E-03
      0.275000          0.301860E-03
      0.280000          0.287110E-03
      0.285000          0.270254E-03
      0.290000          0.253122E-03
      0.295000          0.237537E-03
      0.300000          0.224655E-03
      0.305000          0.214673E-03
      0.310000          0.206974E-03
      0.315000          0.200558E-03
      0.320000          0.194511E-03
      0.325000          0.188283E-03
      0.330000          0.181719E-03
      0.335000          0.174910E-03
      0.340000          0.168009E-03
      0.345000          0.161149E-03
      0.350000          0.154446E-03
      0.355000          0.148064E-03
      0.360000          0.142215E-03
      0.365000          0.137087E-03
      0.370000          0.132723E-03
      0.375000          0.128950E-03
      0.380000          0.125430E-03
      0.385000          0.121826E-03
      0.390000          0.117991E-03
      0.395000          0.114073E-03
      0.400000          0.110441E-03
      0.405000          0.107476E-03
      0.410000          0.105332E-03
      0.415000          0.103810E-03
      0.420000          0.102422E-03
      0.425000          0.100627E-03
      0.430000          0.980912E-04
      0.435000          0.948451E-04
      0.440000          0.912422E-04
      0.445000          0.877598E-04
      0.450000          0.847565E-04
      0.455000          0.823245E-04
      0.460000          0.803051E-04
      0.465000          0.784375E-04
      0.470000          0.765376E-04
      0.475000          0.745962E-04
      0.480000          0.727528E-04
      0.485000          0.711782E-04
      0.490000          0.699522E-04
      0.495000          0.690122E-04
      0.500000          0.681929E-04
