 I_abs(s)[cm^-1]/c[mg/ml]
       0.00000          0.116231E-01
      0.500000E-02      0.113261E-01
      0.100000E-01      0.104935E-01
      0.150000E-01      0.928338E-02
      0.200000E-01      0.790883E-02
      0.250000E-01      0.658099E-02
      0.300000E-01      0.545792E-02
      0.350000E-01      0.461525E-02
      0.400000E-01      0.404519E-02
      0.450000E-01      0.368005E-02
      0.500000E-01      0.342863E-02
      0.550000E-01      0.321112E-02
      0.600000E-01      0.298089E-02
      0.650000E-01      0.272869E-02
      0.700000E-01      0.247189E-02
      0.750000E-01      0.223667E-02
      0.800000E-01      0.204212E-02
      0.850000E-01      0.189208E-02
      0.900000E-01      0.177631E-02
      0.950000E-01      0.167790E-02
      0.100000          0.158204E-02
      0.105000          0.148163E-02
      0.110000          0.137780E-02
      0.115000          0.127649E-02
      0.120000          0.118354E-02
      0.125000          0.110139E-02
      0.130000          0.102856E-02
      0.135000          0.961654E-03
      0.140000          0.898170E-03
      0.145000          0.838198E-03
      0.150000          0.784174E-03
      0.155000          0.738979E-03
      0.160000          0.703708E-03
      0.165000          0.676485E-03
      0.170000          0.653024E-03
      0.175000          0.628595E-03
      0.180000          0.600276E-03
      0.185000          0.568288E-03
      0.190000          0.535713E-03
      0.195000          0.506828E-03
      0.200000          0.484946E-03
      0.205000          0.470847E-03
      0.210000          0.462520E-03
      0.215000          0.456211E-03
      0.220000          0.448158E-03
      0.225000          0.436116E-03
      0.230000          0.420021E-03
      0.235000          0.401600E-03
      0.240000          0.383283E-03
      0.245000          0.367031E-03
      0.250000          0.353606E-03
      0.255000          0.342530E-03
      0.260000          0.332568E-03
      0.265000          0.322407E-03
      0.270000          0.311159E-03
      0.275000          0.298544E-03
      0.280000          0.284779E-03
      0.285000          0.270356E-03
      0.290000          0.255870E-03
      0.295000          0.241942E-03
      0.300000          0.229177E-03
      0.305000          0.218089E-03
      0.310000          0.208943E-03
      0.315000          0.201588E-03
      0.320000          0.195417E-03
      0.325000          0.189516E-03
      0.330000          0.183005E-03
      0.335000          0.175403E-03
      0.340000          0.166847E-03
      0.345000          0.158024E-03
      0.350000          0.149827E-03
      0.355000          0.142907E-03
      0.360000          0.137349E-03
      0.365000          0.132637E-03
      0.370000          0.127947E-03
      0.375000          0.122600E-03
      0.380000          0.116448E-03
      0.385000          0.109984E-03
      0.390000          0.104123E-03
      0.395000          0.997497E-04
      0.400000          0.972887E-04
      0.405000          0.964865E-04
      0.410000          0.965273E-04
      0.415000          0.963996E-04
      0.420000          0.953281E-04
      0.425000          0.930559E-04
      0.430000          0.898581E-04
      0.435000          0.863118E-04
      0.440000          0.829681E-04
      0.445000          0.801065E-04
      0.450000          0.776859E-04
      0.455000          0.754853E-04
      0.460000          0.733239E-04
      0.465000          0.712136E-04
      0.470000          0.693534E-04
      0.475000          0.679766E-04
      0.480000          0.671553E-04
      0.485000          0.666903E-04
      0.490000          0.661645E-04
      0.495000          0.651377E-04
      0.500000          0.633746E-04
