 I_abs(s)[cm^-1]/c[mg/ml]
       0.00000          0.123064E-01
      0.500000E-02      0.121010E-01
      0.100000E-01      0.115057E-01
      0.150000E-01      0.105806E-01
      0.200000E-01      0.941579E-02
      0.250000E-01      0.811937E-02
      0.300000E-01      0.680251E-02
      0.350000E-01      0.556544E-02
      0.400000E-01      0.448599E-02
      0.450000E-01      0.361243E-02
      0.500000E-01      0.296128E-02
      0.550000E-01      0.252016E-02
      0.600000E-01      0.225450E-02
      0.650000E-01      0.211658E-02
      0.700000E-01      0.205520E-02
      0.750000E-01      0.202413E-02
      0.800000E-01      0.198821E-02
      0.850000E-01      0.192632E-02
      0.900000E-01      0.183130E-02
      0.950000E-01      0.170744E-02
      0.100000          0.156632E-02
      0.105000          0.142230E-02
      0.110000          0.128849E-02
      0.115000          0.117401E-02
      0.120000          0.108275E-02
      0.125000          0.101361E-02
      0.130000          0.961834E-03
      0.135000          0.920912E-03
      0.140000          0.884477E-03
      0.145000          0.847733E-03
      0.150000          0.808216E-03
      0.155000          0.765799E-03
      0.160000          0.722132E-03
      0.165000          0.679750E-03
      0.170000          0.641147E-03
      0.175000          0.608057E-03
      0.180000          0.581080E-03
      0.185000          0.559679E-03
      0.190000          0.542471E-03
      0.195000          0.527684E-03
      0.200000          0.513615E-03
      0.205000          0.498986E-03
      0.210000          0.483109E-03
      0.215000          0.465874E-03
      0.220000          0.447591E-03
      0.225000          0.428776E-03
      0.230000          0.409946E-03
      0.235000          0.391485E-03
      0.240000          0.373607E-03
      0.245000          0.356396E-03
      0.250000          0.339900E-03
      0.255000          0.324219E-03
      0.260000          0.309558E-03
      0.265000          0.296224E-03
      0.270000          0.284557E-03
      0.275000          0.274832E-03
      0.280000          0.267153E-03
      0.285000          0.261382E-03
      0.290000          0.257117E-03
      0.295000          0.253737E-03
      0.300000          0.250506E-03
      0.305000          0.246695E-03
      0.310000          0.241721E-03
      0.315000          0.235245E-03
      0.320000          0.227222E-03
      0.325000          0.217905E-03
      0.330000          0.207775E-03
      0.335000          0.197449E-03
      0.340000          0.187564E-03
      0.345000          0.178670E-03
      0.350000          0.171147E-03
      0.355000          0.165162E-03
      0.360000          0.160665E-03
      0.365000          0.157419E-03
      0.370000          0.155066E-03
      0.375000          0.153190E-03
      0.380000          0.151395E-03
      0.385000          0.149361E-03
      0.390000          0.146882E-03
      0.395000          0.143883E-03
      0.400000          0.140410E-03
      0.405000          0.136600E-03
      0.410000          0.132640E-03
      0.415000          0.128723E-03
      0.420000          0.125000E-03
      0.425000          0.121556E-03
      0.430000          0.118393E-03
      0.435000          0.115435E-03
      0.440000          0.112556E-03
      0.445000          0.109615E-03
      0.450000          0.106496E-03
      0.455000          0.103146E-03
      0.460000          0.995923E-04
      0.465000          0.959516E-04
      0.470000          0.924041E-04
      0.475000          0.891584E-04
      0.480000          0.864037E-04
      0.485000          0.842619E-04
      0.490000          0.827532E-04
      0.495000          0.817820E-04
      0.500000          0.811476E-04
