 I_abs(s)[cm^-1]/c[mg/ml]
       0.00000          0.122626E-01
      0.500000E-02      0.120010E-01
      0.100000E-01      0.112611E-01
      0.150000E-01      0.101653E-01
      0.200000E-01      0.888030E-02
      0.250000E-01      0.757476E-02
      0.300000E-01      0.638191E-02
      0.350000E-01      0.537788E-02
      0.400000E-01      0.458015E-02
      0.450000E-01      0.396271E-02
      0.500000E-01      0.347937E-02
      0.550000E-01      0.308537E-02
      0.600000E-01      0.275040E-02
      0.650000E-01      0.246090E-02
      0.700000E-01      0.221448E-02
      0.750000E-01      0.201154E-02
      0.800000E-01      0.184897E-02
      0.850000E-01      0.171835E-02
      0.900000E-01      0.160833E-02
      0.950000E-01      0.150868E-02
      0.100000          0.141352E-02
      0.105000          0.132198E-02
      0.110000          0.123661E-02
      0.115000          0.116054E-02
      0.120000          0.109519E-02
      0.125000          0.103947E-02
      0.130000          0.990392E-03
      0.135000          0.944559E-03
      0.140000          0.899497E-03
      0.145000          0.854232E-03
      0.150000          0.809070E-03
      0.155000          0.764931E-03
      0.160000          0.722705E-03
      0.165000          0.682954E-03
      0.170000          0.645962E-03
      0.175000          0.611941E-03
      0.180000          0.581162E-03
      0.185000          0.553897E-03
      0.190000          0.530237E-03
      0.195000          0.509913E-03
      0.200000          0.492276E-03
      0.205000          0.476442E-03
      0.210000          0.461545E-03
      0.215000          0.446959E-03
      0.220000          0.432402E-03
      0.225000          0.417889E-03
      0.230000          0.403589E-03
      0.235000          0.389674E-03
      0.240000          0.376224E-03
      0.245000          0.363224E-03
      0.250000          0.350613E-03
      0.255000          0.338355E-03
      0.260000          0.326487E-03
      0.265000          0.315120E-03
      0.270000          0.304402E-03
      0.275000          0.294468E-03
      0.280000          0.285400E-03
      0.285000          0.277203E-03
      0.290000          0.269812E-03
      0.295000          0.263094E-03
      0.300000          0.256874E-03
      0.305000          0.250935E-03
      0.310000          0.245034E-03
      0.315000          0.238916E-03
      0.320000          0.232343E-03
      0.325000          0.225135E-03
      0.330000          0.217206E-03
      0.335000          0.208580E-03
      0.340000          0.199385E-03
      0.345000          0.189821E-03
      0.350000          0.180113E-03
      0.355000          0.170487E-03
      0.360000          0.161166E-03
      0.365000          0.152382E-03
      0.370000          0.144390E-03
      0.375000          0.137443E-03
      0.380000          0.131740E-03
      0.385000          0.127334E-03
      0.390000          0.124076E-03
      0.395000          0.121612E-03
      0.400000          0.119469E-03
      0.405000          0.117202E-03
      0.410000          0.114548E-03
      0.415000          0.111510E-03
      0.420000          0.108324E-03
      0.425000          0.105330E-03
      0.430000          0.102779E-03
      0.435000          0.100701E-03
      0.440000          0.988784E-04
      0.445000          0.969458E-04
      0.450000          0.945810E-04
      0.455000          0.916782E-04
      0.460000          0.884235E-04
      0.465000          0.852315E-04
      0.470000          0.825693E-04
      0.475000          0.807520E-04
      0.480000          0.798044E-04
      0.485000          0.794507E-04
      0.490000          0.792303E-04
      0.495000          0.786811E-04
      0.500000          0.775051E-04
