 I_abs(s)[cm^-1]/c[mg/ml]
       0.00000          0.119659E-01
      0.500000E-02      0.116979E-01
      0.100000E-01      0.109390E-01
      0.150000E-01      0.981271E-02
      0.200000E-01      0.848859E-02
      0.250000E-01      0.714086E-02
      0.300000E-01      0.591077E-02
      0.350000E-01      0.488366E-02
      0.400000E-01      0.408496E-02
      0.450000E-01      0.349302E-02
      0.500000E-01      0.306077E-02
      0.550000E-01      0.273727E-02
      0.600000E-01      0.248209E-02
      0.650000E-01      0.227023E-02
      0.700000E-01      0.208922E-02
      0.750000E-01      0.193306E-02
      0.800000E-01      0.179714E-02
      0.850000E-01      0.167640E-02
      0.900000E-01      0.156638E-02
      0.950000E-01      0.146515E-02
      0.100000          0.137388E-02
      0.105000          0.129541E-02
      0.110000          0.123131E-02
      0.115000          0.117957E-02
      0.120000          0.113423E-02
      0.125000          0.108751E-02
      0.130000          0.103324E-02
      0.135000          0.969922E-03
      0.140000          0.901540E-03
      0.145000          0.835788E-03
      0.150000          0.780527E-03
      0.155000          0.740266E-03
      0.160000          0.714341E-03
      0.165000          0.697546E-03
      0.170000          0.682732E-03
      0.175000          0.663944E-03
      0.180000          0.638595E-03
      0.185000          0.607812E-03
      0.190000          0.575087E-03
      0.195000          0.544193E-03
      0.200000          0.517514E-03
      0.205000          0.495509E-03
      0.210000          0.477315E-03
      0.215000          0.461850E-03
      0.220000          0.448623E-03
      0.225000          0.437784E-03
      0.230000          0.429495E-03
      0.235000          0.423154E-03
      0.240000          0.417086E-03
      0.245000          0.408983E-03
      0.250000          0.396901E-03
      0.255000          0.380249E-03
      0.260000          0.360182E-03
      0.265000          0.339152E-03
      0.270000          0.319815E-03
      0.275000          0.303867E-03
      0.280000          0.291395E-03
      0.285000          0.281052E-03
      0.290000          0.270904E-03
      0.295000          0.259480E-03
      0.300000          0.246476E-03
      0.305000          0.232791E-03
      0.310000          0.219944E-03
      0.315000          0.209249E-03
      0.320000          0.201177E-03
      0.325000          0.195223E-03
      0.330000          0.190253E-03
      0.335000          0.185095E-03
      0.340000          0.179034E-03
      0.345000          0.171972E-03
      0.350000          0.164264E-03
      0.355000          0.156388E-03
      0.360000          0.148691E-03
      0.365000          0.141343E-03
      0.370000          0.134472E-03
      0.375000          0.128325E-03
      0.380000          0.123301E-03
      0.385000          0.119790E-03
      0.390000          0.117910E-03
      0.395000          0.117304E-03
      0.400000          0.117159E-03
      0.405000          0.116466E-03
      0.410000          0.114415E-03
      0.415000          0.110710E-03
      0.420000          0.105669E-03
      0.425000          0.100040E-03
      0.430000          0.946560E-04
      0.435000          0.900980E-04
      0.440000          0.865401E-04
      0.445000          0.838139E-04
      0.450000          0.816233E-04
      0.455000          0.797585E-04
      0.460000          0.781822E-04
      0.465000          0.769560E-04
      0.470000          0.760799E-04
      0.475000          0.753733E-04
      0.480000          0.744921E-04
      0.485000          0.730890E-04
      0.490000          0.710234E-04
      0.495000          0.684922E-04
      0.500000          0.659869E-04
