 I_abs(s)[cm^-1]/c[mg/ml]
       0.00000          0.119299E-01
      0.500000E-02      0.116625E-01
      0.100000E-01      0.109048E-01
      0.150000E-01      0.977793E-02
      0.200000E-01      0.844845E-02
      0.250000E-01      0.708722E-02
      0.300000E-01      0.583294E-02
      0.350000E-01      0.477019E-02
      0.400000E-01      0.392631E-02
      0.450000E-01      0.328425E-02
      0.500000E-01      0.280378E-02
      0.550000E-01      0.244169E-02
      0.600000E-01      0.216471E-02
      0.650000E-01      0.195271E-02
      0.700000E-01      0.179478E-02
      0.750000E-01      0.168252E-02
      0.800000E-01      0.160508E-02
      0.850000E-01      0.154817E-02
      0.900000E-01      0.149667E-02
      0.950000E-01      0.143872E-02
      0.100000          0.136865E-02
      0.105000          0.128756E-02
      0.110000          0.120126E-02
      0.115000          0.111708E-02
      0.120000          0.104095E-02
      0.125000          0.975833E-03
      0.130000          0.921749E-03
      0.135000          0.876792E-03
      0.140000          0.838367E-03
      0.145000          0.804033E-03
      0.150000          0.771814E-03
      0.155000          0.740184E-03
      0.160000          0.708045E-03
      0.165000          0.674858E-03
      0.170000          0.640884E-03
      0.175000          0.607294E-03
      0.180000          0.575973E-03
      0.185000          0.548956E-03
      0.190000          0.527702E-03
      0.195000          0.512474E-03
      0.200000          0.502103E-03
      0.205000          0.494261E-03
      0.210000          0.486146E-03
      0.215000          0.475341E-03
      0.220000          0.460537E-03
      0.225000          0.441860E-03
      0.230000          0.420714E-03
      0.235000          0.399196E-03
      0.240000          0.379305E-03
      0.245000          0.362262E-03
      0.250000          0.348144E-03
      0.255000          0.335990E-03
      0.260000          0.324289E-03
      0.265000          0.311643E-03
      0.270000          0.297339E-03
      0.275000          0.281595E-03
      0.280000          0.265405E-03
      0.285000          0.250079E-03
      0.290000          0.236685E-03
      0.295000          0.225649E-03
      0.300000          0.216668E-03
      0.305000          0.208938E-03
      0.310000          0.201581E-03
      0.315000          0.194042E-03
      0.320000          0.186308E-03
      0.325000          0.178839E-03
      0.330000          0.172282E-03
      0.335000          0.167111E-03
      0.340000          0.163362E-03
      0.345000          0.160571E-03
      0.350000          0.157944E-03
      0.355000          0.154664E-03
      0.360000          0.150202E-03
      0.365000          0.144496E-03
      0.370000          0.137946E-03
      0.375000          0.131228E-03
      0.380000          0.125031E-03
      0.385000          0.119823E-03
      0.390000          0.115742E-03
      0.395000          0.112621E-03
      0.400000          0.110134E-03
      0.405000          0.107946E-03
      0.410000          0.105829E-03
      0.415000          0.103686E-03
      0.420000          0.101499E-03
      0.425000          0.992717E-04
      0.430000          0.969888E-04
      0.435000          0.946260E-04
      0.440000          0.921901E-04
      0.445000          0.897463E-04
      0.450000          0.874013E-04
      0.455000          0.852447E-04
      0.460000          0.832812E-04
      0.465000          0.814015E-04
      0.470000          0.794196E-04
      0.475000          0.771668E-04
      0.480000          0.745919E-04
      0.485000          0.718119E-04
      0.490000          0.690781E-04
      0.495000          0.666682E-04
      0.500000          0.647586E-04
