 I_abs(s)[cm^-1]/c[mg/ml]
       0.00000          0.142896E-01
      0.500000E-02      0.142160E-01
      0.100000E-01      0.139973E-01
      0.150000E-01      0.136407E-01
      0.200000E-01      0.131572E-01
      0.250000E-01      0.125617E-01
      0.300000E-01      0.118723E-01
      0.350000E-01      0.111088E-01
      0.400000E-01      0.102926E-01
      0.450000E-01      0.944507E-02
      0.500000E-01      0.858722E-02
      0.550000E-01      0.773849E-02
      0.600000E-01      0.691617E-02
      0.650000E-01      0.613490E-02
      0.700000E-01      0.540629E-02
      0.750000E-01      0.473872E-02
      0.800000E-01      0.413737E-02
      0.850000E-01      0.360440E-02
      0.900000E-01      0.313922E-02
      0.950000E-01      0.273896E-02
      0.100000          0.239891E-02
      0.105000          0.211307E-02
      0.110000          0.187466E-02
      0.115000          0.167657E-02
      0.120000          0.151185E-02
      0.125000          0.137397E-02
      0.130000          0.125712E-02
      0.135000          0.115640E-02
      0.140000          0.106779E-02
      0.145000          0.988272E-03
      0.150000          0.915655E-03
      0.155000          0.848518E-03
      0.160000          0.786043E-03
      0.165000          0.727861E-03
      0.170000          0.673900E-03
      0.175000          0.624242E-03
      0.180000          0.579015E-03
      0.185000          0.538301E-03
      0.190000          0.502085E-03
      0.195000          0.470229E-03
      0.200000          0.442468E-03
      0.205000          0.418434E-03
      0.210000          0.397680E-03
      0.215000          0.379717E-03
      0.220000          0.364056E-03
      0.225000          0.350235E-03
      0.230000          0.337847E-03
      0.235000          0.326554E-03
      0.240000          0.316092E-03
      0.245000          0.306272E-03
      0.250000          0.296966E-03
      0.255000          0.288099E-03
      0.260000          0.279626E-03
      0.265000          0.271523E-03
      0.270000          0.263771E-03
      0.275000          0.256345E-03
      0.280000          0.249214E-03
      0.285000          0.242333E-03
      0.290000          0.235652E-03
      0.295000          0.229114E-03
      0.300000          0.222670E-03
      0.305000          0.216276E-03
      0.310000          0.209907E-03
      0.315000          0.203555E-03
      0.320000          0.197231E-03
      0.325000          0.190966E-03
      0.330000          0.184806E-03
      0.335000          0.178806E-03
      0.340000          0.173023E-03
      0.345000          0.167511E-03
      0.350000          0.162313E-03
      0.355000          0.157460E-03
      0.360000          0.152960E-03
      0.365000          0.148806E-03
      0.370000          0.144972E-03
      0.375000          0.141417E-03
      0.380000          0.138091E-03
      0.385000          0.134940E-03
      0.390000          0.131912E-03
      0.395000          0.128962E-03
      0.400000          0.126059E-03
      0.405000          0.123188E-03
      0.410000          0.120349E-03
      0.415000          0.117561E-03
      0.420000          0.114860E-03
      0.425000          0.112290E-03
      0.430000          0.109905E-03
      0.435000          0.107758E-03
      0.440000          0.105900E-03
      0.445000          0.104370E-03
      0.450000          0.103197E-03
      0.455000          0.102390E-03
      0.460000          0.101939E-03
      0.465000          0.101817E-03
      0.470000          0.101977E-03
      0.475000          0.102359E-03
      0.480000          0.102890E-03
      0.485000          0.103491E-03
      0.490000          0.104082E-03
      0.495000          0.104585E-03
      0.500000          0.104930E-03
