 I_abs(s)[cm^-1]/c[mg/ml]
       0.00000          0.144872E-01
      0.500000E-02      0.144225E-01
      0.100000E-01      0.142303E-01
      0.150000E-01      0.139158E-01
      0.200000E-01      0.134879E-01
      0.250000E-01      0.129579E-01
      0.300000E-01      0.123401E-01
      0.350000E-01      0.116501E-01
      0.400000E-01      0.109051E-01
      0.450000E-01      0.101224E-01
      0.500000E-01      0.931940E-02
      0.550000E-01      0.851265E-02
      0.600000E-01      0.771732E-02
      0.650000E-01      0.694682E-02
      0.700000E-01      0.621244E-02
      0.750000E-01      0.552320E-02
      0.800000E-01      0.488569E-02
      0.850000E-01      0.430415E-02
      0.900000E-01      0.378061E-02
      0.950000E-01      0.331511E-02
      0.100000          0.290596E-02
      0.105000          0.255010E-02
      0.110000          0.224345E-02
      0.115000          0.198121E-02
      0.120000          0.175822E-02
      0.125000          0.156922E-02
      0.130000          0.140910E-02
      0.135000          0.127310E-02
      0.140000          0.115688E-02
      0.145000          0.105669E-02
      0.150000          0.969317E-03
      0.155000          0.892152E-03
      0.160000          0.823109E-03
      0.165000          0.760588E-03
      0.170000          0.703403E-03
      0.175000          0.650710E-03
      0.180000          0.601933E-03
      0.185000          0.556697E-03
      0.190000          0.514772E-03
      0.195000          0.476021E-03
      0.200000          0.440365E-03
      0.205000          0.407753E-03
      0.210000          0.378141E-03
      0.215000          0.351477E-03
      0.220000          0.327697E-03
      0.225000          0.306709E-03
      0.230000          0.288401E-03
      0.235000          0.272631E-03
      0.240000          0.259229E-03
      0.245000          0.247998E-03
      0.250000          0.238714E-03
      0.255000          0.231132E-03
      0.260000          0.224990E-03
      0.265000          0.220014E-03
      0.270000          0.215928E-03
      0.275000          0.212462E-03
      0.280000          0.209361E-03
      0.285000          0.206396E-03
      0.290000          0.203372E-03
      0.295000          0.200132E-03
      0.300000          0.196565E-03
      0.305000          0.192607E-03
      0.310000          0.188240E-03
      0.315000          0.183487E-03
      0.320000          0.178412E-03
      0.325000          0.173104E-03
      0.330000          0.167676E-03
      0.335000          0.162252E-03
      0.340000          0.156959E-03
      0.345000          0.151917E-03
      0.350000          0.147235E-03
      0.355000          0.143002E-03
      0.360000          0.139287E-03
      0.365000          0.136136E-03
      0.370000          0.133568E-03
      0.375000          0.131583E-03
      0.380000          0.130160E-03
      0.385000          0.129258E-03
      0.390000          0.128824E-03
      0.395000          0.128795E-03
      0.400000          0.129096E-03
      0.405000          0.129652E-03
      0.410000          0.130380E-03
      0.415000          0.131198E-03
      0.420000          0.132026E-03
      0.425000          0.132784E-03
      0.430000          0.133396E-03
      0.435000          0.133792E-03
      0.440000          0.133907E-03
      0.445000          0.133686E-03
      0.450000          0.133084E-03
      0.455000          0.132068E-03
      0.460000          0.130618E-03
      0.465000          0.128732E-03
      0.470000          0.126419E-03
      0.475000          0.123710E-03
      0.480000          0.120647E-03
      0.485000          0.117288E-03
      0.490000          0.113702E-03
      0.495000          0.109970E-03
      0.500000          0.106175E-03
