 I_abs(s)[cm^-1]/c[mg/ml]
       0.00000          0.143922E-01
      0.500000E-02      0.143173E-01
      0.100000E-01      0.140949E-01
      0.150000E-01      0.137320E-01
      0.200000E-01      0.132402E-01
      0.250000E-01      0.126344E-01
      0.300000E-01      0.119328E-01
      0.350000E-01      0.111555E-01
      0.400000E-01      0.103241E-01
      0.450000E-01      0.946008E-02
      0.500000E-01      0.858459E-02
      0.550000E-01      0.771712E-02
      0.600000E-01      0.687505E-02
      0.650000E-01      0.607311E-02
      0.700000E-01      0.532307E-02
      0.750000E-01      0.463354E-02
      0.800000E-01      0.401006E-02
      0.850000E-01      0.345524E-02
      0.900000E-01      0.296909E-02
      0.950000E-01      0.254941E-02
      0.100000          0.219223E-02
      0.105000          0.189230E-02
      0.110000          0.164356E-02
      0.115000          0.143952E-02
      0.120000          0.127368E-02
      0.125000          0.113977E-02
      0.130000          0.103203E-02
      0.135000          0.945279E-03
      0.140000          0.875075E-03
      0.145000          0.817677E-03
      0.150000          0.770043E-03
      0.155000          0.729762E-03
      0.160000          0.694981E-03
      0.165000          0.664307E-03
      0.170000          0.636723E-03
      0.175000          0.611500E-03
      0.180000          0.588122E-03
      0.185000          0.566223E-03
      0.190000          0.545541E-03
      0.195000          0.525878E-03
      0.200000          0.507073E-03
      0.205000          0.488990E-03
      0.210000          0.471501E-03
      0.215000          0.454486E-03
      0.220000          0.437831E-03
      0.225000          0.421431E-03
      0.230000          0.405192E-03
      0.235000          0.389037E-03
      0.240000          0.372912E-03
      0.245000          0.356790E-03
      0.250000          0.340674E-03
      0.255000          0.324602E-03
      0.260000          0.308646E-03
      0.265000          0.292908E-03
      0.270000          0.277520E-03
      0.275000          0.262633E-03
      0.280000          0.248407E-03
      0.285000          0.235006E-03
      0.290000          0.222578E-03
      0.295000          0.211252E-03
      0.300000          0.201121E-03
      0.305000          0.192238E-03
      0.310000          0.184612E-03
      0.315000          0.178203E-03
      0.320000          0.172928E-03
      0.325000          0.168665E-03
      0.330000          0.165261E-03
      0.335000          0.162544E-03
      0.340000          0.160336E-03
      0.345000          0.158463E-03
      0.350000          0.156763E-03
      0.355000          0.155104E-03
      0.360000          0.153382E-03
      0.365000          0.151526E-03
      0.370000          0.149502E-03
      0.375000          0.147308E-03
      0.380000          0.144968E-03
      0.385000          0.142527E-03
      0.390000          0.140043E-03
      0.395000          0.137578E-03
      0.400000          0.135192E-03
      0.405000          0.132932E-03
      0.410000          0.130836E-03
      0.415000          0.128921E-03
      0.420000          0.127189E-03
      0.425000          0.125622E-03
      0.430000          0.124190E-03
      0.435000          0.122853E-03
      0.440000          0.121563E-03
      0.445000          0.120271E-03
      0.450000          0.118933E-03
      0.455000          0.117507E-03
      0.460000          0.115966E-03
      0.465000          0.114288E-03
      0.470000          0.112467E-03
      0.475000          0.110507E-03
      0.480000          0.108421E-03
      0.485000          0.106230E-03
      0.490000          0.103960E-03
      0.495000          0.101641E-03
      0.500000          0.993037E-04
