 I_abs(s)[cm^-1]/c[mg/ml]
       0.00000          0.142582E-01
      0.500000E-02      0.141759E-01
      0.100000E-01      0.139322E-01
      0.150000E-01      0.135360E-01
      0.200000E-01      0.130020E-01
      0.250000E-01      0.123490E-01
      0.300000E-01      0.115998E-01
      0.350000E-01      0.107788E-01
      0.400000E-01      0.991179E-02
      0.450000E-01      0.902366E-02
      0.500000E-01      0.813781E-02
      0.550000E-01      0.727493E-02
      0.600000E-01      0.645227E-02
      0.650000E-01      0.568317E-02
      0.700000E-01      0.497694E-02
      0.750000E-01      0.433893E-02
      0.800000E-01      0.377090E-02
      0.850000E-01      0.327155E-02
      0.900000E-01      0.283721E-02
      0.950000E-01      0.246255E-02
      0.100000          0.214126E-02
      0.105000          0.186675E-02
      0.110000          0.163261E-02
      0.115000          0.143304E-02
      0.120000          0.126308E-02
      0.125000          0.111869E-02
      0.130000          0.996729E-03
      0.135000          0.894805E-03
      0.140000          0.811088E-03
      0.145000          0.744079E-03
      0.150000          0.692398E-03
      0.155000          0.654602E-03
      0.160000          0.629059E-03
      0.165000          0.613890E-03
      0.170000          0.606979E-03
      0.175000          0.606034E-03
      0.180000          0.608705E-03
      0.185000          0.612713E-03
      0.190000          0.615996E-03
      0.195000          0.616832E-03
      0.200000          0.613940E-03
      0.205000          0.606535E-03
      0.210000          0.594341E-03
      0.215000          0.577555E-03
      0.220000          0.556773E-03
      0.225000          0.532894E-03
      0.230000          0.506994E-03
      0.235000          0.480208E-03
      0.240000          0.453612E-03
      0.245000          0.428135E-03
      0.250000          0.404483E-03
      0.255000          0.383111E-03
      0.260000          0.364208E-03
      0.265000          0.347723E-03
      0.270000          0.333406E-03
      0.275000          0.320866E-03
      0.280000          0.309631E-03
      0.285000          0.299218E-03
      0.290000          0.289180E-03
      0.295000          0.279153E-03
      0.300000          0.268884E-03
      0.305000          0.258240E-03
      0.310000          0.247208E-03
      0.315000          0.235875E-03
      0.320000          0.224409E-03
      0.325000          0.213028E-03
      0.330000          0.201969E-03
      0.335000          0.191461E-03
      0.340000          0.181705E-03
      0.345000          0.172855E-03
      0.350000          0.165010E-03
      0.355000          0.158214E-03
      0.360000          0.152452E-03
      0.365000          0.147669E-03
      0.370000          0.143769E-03
      0.375000          0.140635E-03
      0.380000          0.138133E-03
      0.385000          0.136129E-03
      0.390000          0.134490E-03
      0.395000          0.133095E-03
      0.400000          0.131837E-03
      0.405000          0.130626E-03
      0.410000          0.129390E-03
      0.415000          0.128074E-03
      0.420000          0.126638E-03
      0.425000          0.125060E-03
      0.430000          0.123334E-03
      0.435000          0.121465E-03
      0.440000          0.119470E-03
      0.445000          0.117374E-03
      0.450000          0.115211E-03
      0.455000          0.113014E-03
      0.460000          0.110821E-03
      0.465000          0.108661E-03
      0.470000          0.106561E-03
      0.475000          0.104535E-03
      0.480000          0.102590E-03
      0.485000          0.100719E-03
      0.490000          0.989065E-04
      0.495000          0.971287E-04
      0.500000          0.953572E-04
