 I_abs(s)[cm^-1]/c[mg/ml]
       0.00000          0.144396E-01
      0.500000E-02      0.143865E-01
      0.100000E-01      0.142281E-01
      0.150000E-01      0.139677E-01
      0.200000E-01      0.136107E-01
      0.250000E-01      0.131642E-01
      0.300000E-01      0.126371E-01
      0.350000E-01      0.120397E-01
      0.400000E-01      0.113833E-01
      0.450000E-01      0.106801E-01
      0.500000E-01      0.994272E-02
      0.550000E-01      0.918382E-02
      0.600000E-01      0.841582E-02
      0.650000E-01      0.765062E-02
      0.700000E-01      0.689926E-02
      0.750000E-01      0.617172E-02
      0.800000E-01      0.547674E-02
      0.850000E-01      0.482164E-02
      0.900000E-01      0.421227E-02
      0.950000E-01      0.365295E-02
      0.100000          0.314649E-02
      0.105000          0.269429E-02
      0.110000          0.229637E-02
      0.115000          0.195156E-02
      0.120000          0.165764E-02
      0.125000          0.141151E-02
      0.130000          0.120941E-02
      0.135000          0.104704E-02
      0.140000          0.919820E-03
      0.145000          0.823001E-03
      0.150000          0.751853E-03
      0.155000          0.701788E-03
      0.160000          0.668470E-03
      0.165000          0.647910E-03
      0.170000          0.636522E-03
      0.175000          0.631170E-03
      0.180000          0.629187E-03
      0.185000          0.628375E-03
      0.190000          0.626990E-03
      0.195000          0.623719E-03
      0.200000          0.617636E-03
      0.205000          0.608166E-03
      0.210000          0.595033E-03
      0.215000          0.578211E-03
      0.220000          0.557881E-03
      0.225000          0.534381E-03
      0.230000          0.508167E-03
      0.235000          0.479773E-03
      0.240000          0.449780E-03
      0.245000          0.418788E-03
      0.250000          0.387392E-03
      0.255000          0.356162E-03
      0.260000          0.325629E-03
      0.265000          0.296272E-03
      0.270000          0.268512E-03
      0.275000          0.242701E-03
      0.280000          0.219122E-03
      0.285000          0.197983E-03
      0.290000          0.179422E-03
      0.295000          0.163503E-03
      0.300000          0.150222E-03
      0.305000          0.139510E-03
      0.310000          0.131241E-03
      0.315000          0.125234E-03
      0.320000          0.121267E-03
      0.325000          0.119082E-03
      0.330000          0.118398E-03
      0.335000          0.118917E-03
      0.340000          0.120337E-03
      0.345000          0.122363E-03
      0.350000          0.124713E-03
      0.355000          0.127129E-03
      0.360000          0.129381E-03
      0.365000          0.131278E-03
      0.370000          0.132665E-03
      0.375000          0.133430E-03
      0.380000          0.133501E-03
      0.385000          0.132849E-03
      0.390000          0.131478E-03
      0.395000          0.129429E-03
      0.400000          0.126767E-03
      0.405000          0.123579E-03
      0.410000          0.119969E-03
      0.415000          0.116047E-03
      0.420000          0.111927E-03
      0.425000          0.107719E-03
      0.430000          0.103525E-03
      0.435000          0.994361E-04
      0.440000          0.955279E-04
      0.445000          0.918604E-04
      0.450000          0.884766E-04
      0.455000          0.854031E-04
      0.460000          0.826514E-04
      0.465000          0.802197E-04
      0.470000          0.780955E-04
      0.475000          0.762579E-04
      0.480000          0.746806E-04
      0.485000          0.733346E-04
      0.490000          0.721905E-04
      0.495000          0.712203E-04
      0.500000          0.703995E-04
