 I_abs(s)[cm^-1]/c[mg/ml]
       0.00000          0.144396E-01
      0.500000E-02      0.143851E-01
      0.100000E-01      0.142224E-01
      0.150000E-01      0.139552E-01
      0.200000E-01      0.135889E-01
      0.250000E-01      0.131311E-01
      0.300000E-01      0.125913E-01
      0.350000E-01      0.119800E-01
      0.400000E-01      0.113093E-01
      0.450000E-01      0.105918E-01
      0.500000E-01      0.984071E-02
      0.550000E-01      0.906908E-02
      0.600000E-01      0.828979E-02
      0.650000E-01      0.751506E-02
      0.700000E-01      0.675618E-02
      0.750000E-01      0.602328E-02
      0.800000E-01      0.532511E-02
      0.850000E-01      0.466894E-02
      0.900000E-01      0.406048E-02
      0.950000E-01      0.350380E-02
      0.100000          0.300142E-02
      0.105000          0.255438E-02
      0.110000          0.216232E-02
      0.115000          0.182370E-02
      0.120000          0.153591E-02
      0.125000          0.129550E-02
      0.130000          0.109838E-02
      0.135000          0.940039E-03
      0.140000          0.815685E-03
      0.145000          0.720470E-03
      0.150000          0.649630E-03
      0.155000          0.598618E-03
      0.160000          0.563214E-03
      0.165000          0.539606E-03
      0.170000          0.524441E-03
      0.175000          0.514859E-03
      0.180000          0.508497E-03
      0.185000          0.503476E-03
      0.190000          0.498371E-03
      0.195000          0.492173E-03
      0.200000          0.484235E-03
      0.205000          0.474222E-03
      0.210000          0.462047E-03
      0.215000          0.447820E-03
      0.220000          0.431795E-03
      0.225000          0.414318E-03
      0.230000          0.395790E-03
      0.235000          0.376629E-03
      0.240000          0.357244E-03
      0.245000          0.338012E-03
      0.250000          0.319264E-03
      0.255000          0.301278E-03
      0.260000          0.284273E-03
      0.265000          0.268412E-03
      0.270000          0.253801E-03
      0.275000          0.240497E-03
      0.280000          0.228515E-03
      0.285000          0.217833E-03
      0.290000          0.208401E-03
      0.295000          0.200150E-03
      0.300000          0.192992E-03
      0.305000          0.186831E-03
      0.310000          0.181567E-03
      0.315000          0.177097E-03
      0.320000          0.173320E-03
      0.325000          0.170137E-03
      0.330000          0.167455E-03
      0.335000          0.165186E-03
      0.340000          0.163246E-03
      0.345000          0.161559E-03
      0.350000          0.160054E-03
      0.355000          0.158667E-03
      0.360000          0.157340E-03
      0.365000          0.156020E-03
      0.370000          0.154661E-03
      0.375000          0.153221E-03
      0.380000          0.151668E-03
      0.385000          0.149973E-03
      0.390000          0.148116E-03
      0.395000          0.146080E-03
      0.400000          0.143857E-03
      0.405000          0.141444E-03
      0.410000          0.138845E-03
      0.415000          0.136069E-03
      0.420000          0.133130E-03
      0.425000          0.130046E-03
      0.430000          0.126840E-03
      0.435000          0.123537E-03
      0.440000          0.120167E-03
      0.445000          0.116758E-03
      0.450000          0.113340E-03
      0.455000          0.109943E-03
      0.460000          0.106597E-03
      0.465000          0.103328E-03
      0.470000          0.100161E-03
      0.475000          0.971178E-04
      0.480000          0.942168E-04
      0.485000          0.914724E-04
      0.490000          0.888951E-04
      0.495000          0.864917E-04
      0.500000          0.842648E-04
