 I_abs(s)[cm^-1]/c[mg/ml]
       0.00000          0.142346E-01
      0.500000E-02      0.141580E-01
      0.100000E-01      0.139308E-01
      0.150000E-01      0.135605E-01
      0.200000E-01      0.130592E-01
      0.250000E-01      0.124429E-01
      0.300000E-01      0.117308E-01
      0.350000E-01      0.109444E-01
      0.400000E-01      0.101060E-01
      0.450000E-01      0.923854E-02
      0.500000E-01      0.836381E-02
      0.550000E-01      0.750200E-02
      0.600000E-01      0.667084E-02
      0.650000E-01      0.588510E-02
      0.700000E-01      0.515626E-02
      0.750000E-01      0.449232E-02
      0.800000E-01      0.389796E-02
      0.850000E-01      0.337468E-02
      0.900000E-01      0.292127E-02
      0.950000E-01      0.253422E-02
      0.100000          0.220827E-02
      0.105000          0.193699E-02
      0.110000          0.171327E-02
      0.115000          0.152984E-02
      0.120000          0.137964E-02
      0.125000          0.125615E-02
      0.130000          0.115360E-02
      0.135000          0.106711E-02
      0.140000          0.992693E-03
      0.145000          0.927268E-03
      0.150000          0.868544E-03
      0.155000          0.814913E-03
      0.160000          0.765311E-03
      0.165000          0.719082E-03
      0.170000          0.675844E-03
      0.175000          0.635386E-03
      0.180000          0.597579E-03
      0.185000          0.562317E-03
      0.190000          0.529482E-03
      0.195000          0.498930E-03
      0.200000          0.470487E-03
      0.205000          0.443963E-03
      0.210000          0.419165E-03
      0.215000          0.395913E-03
      0.220000          0.374050E-03
      0.225000          0.353456E-03
      0.230000          0.334046E-03
      0.235000          0.315768E-03
      0.240000          0.298597E-03
      0.245000          0.282527E-03
      0.250000          0.267560E-03
      0.255000          0.253700E-03
      0.260000          0.240941E-03
      0.265000          0.229263E-03
      0.270000          0.218634E-03
      0.275000          0.209007E-03
      0.280000          0.200320E-03
      0.285000          0.192504E-03
      0.290000          0.185484E-03
      0.295000          0.179185E-03
      0.300000          0.173532E-03
      0.305000          0.168456E-03
      0.310000          0.163890E-03
      0.315000          0.159776E-03
      0.320000          0.156060E-03
      0.325000          0.152693E-03
      0.330000          0.149631E-03
      0.335000          0.146834E-03
      0.340000          0.144265E-03
      0.345000          0.141894E-03
      0.350000          0.139695E-03
      0.355000          0.137648E-03
      0.360000          0.135742E-03
      0.365000          0.133971E-03
      0.370000          0.132335E-03
      0.375000          0.130841E-03
      0.380000          0.129497E-03
      0.385000          0.128314E-03
      0.390000          0.127299E-03
      0.395000          0.126454E-03
      0.400000          0.125774E-03
      0.405000          0.125245E-03
      0.410000          0.124842E-03
      0.415000          0.124530E-03
      0.420000          0.124266E-03
      0.425000          0.123999E-03
      0.430000          0.123677E-03
      0.435000          0.123249E-03
      0.440000          0.122669E-03
      0.445000          0.121899E-03
      0.450000          0.120915E-03
      0.455000          0.119708E-03
      0.460000          0.118284E-03
      0.465000          0.116665E-03
      0.470000          0.114888E-03
      0.475000          0.112999E-03
      0.480000          0.111054E-03
      0.485000          0.109109E-03
      0.490000          0.107219E-03
      0.495000          0.105433E-03
      0.500000          0.103789E-03
