 I_abs(s)[cm^-1]/c[mg/ml]
       0.00000          0.145030E-01
      0.500000E-02      0.144290E-01
      0.100000E-01      0.142089E-01
      0.150000E-01      0.138496E-01
      0.200000E-01      0.133616E-01
      0.250000E-01      0.127591E-01
      0.300000E-01      0.120594E-01
      0.350000E-01      0.112817E-01
      0.400000E-01      0.104467E-01
      0.450000E-01      0.957530E-02
      0.500000E-01      0.868828E-02
      0.550000E-01      0.780511E-02
      0.600000E-01      0.694345E-02
      0.650000E-01      0.611861E-02
      0.700000E-01      0.534313E-02
      0.750000E-01      0.462662E-02
      0.800000E-01      0.397566E-02
      0.850000E-01      0.339391E-02
      0.900000E-01      0.288236E-02
      0.950000E-01      0.243962E-02
      0.100000          0.206236E-02
      0.105000          0.174574E-02
      0.110000          0.148388E-02
      0.115000          0.127026E-02
      0.120000          0.109817E-02
      0.125000          0.961034E-03
      0.130000          0.852673E-03
      0.135000          0.767504E-03
      0.140000          0.700663E-03
      0.145000          0.648054E-03
      0.150000          0.606348E-03
      0.155000          0.572920E-03
      0.160000          0.545772E-03
      0.165000          0.523419E-03
      0.170000          0.504784E-03
      0.175000          0.489082E-03
      0.180000          0.475735E-03
      0.185000          0.464286E-03
      0.190000          0.454344E-03
      0.195000          0.445551E-03
      0.200000          0.437559E-03
      0.205000          0.430032E-03
      0.210000          0.422650E-03
      0.215000          0.415128E-03
      0.220000          0.407225E-03
      0.225000          0.398765E-03
      0.230000          0.389642E-03
      0.235000          0.379828E-03
      0.240000          0.369365E-03
      0.245000          0.358357E-03
      0.250000          0.346958E-03
      0.255000          0.335349E-03
      0.260000          0.323723E-03
      0.265000          0.312266E-03
      0.270000          0.301139E-03
      0.275000          0.290468E-03
      0.280000          0.280333E-03
      0.285000          0.270770E-03
      0.290000          0.261771E-03
      0.295000          0.253292E-03
      0.300000          0.245259E-03
      0.305000          0.237583E-03
      0.310000          0.230171E-03
      0.315000          0.222937E-03
      0.320000          0.215813E-03
      0.325000          0.208754E-03
      0.330000          0.201744E-03
      0.335000          0.194799E-03
      0.340000          0.187960E-03
      0.345000          0.181293E-03
      0.350000          0.174881E-03
      0.355000          0.168815E-03
      0.360000          0.163189E-03
      0.365000          0.158087E-03
      0.370000          0.153578E-03
      0.375000          0.149712E-03
      0.380000          0.146512E-03
      0.385000          0.143976E-03
      0.390000          0.142072E-03
      0.395000          0.140746E-03
      0.400000          0.139921E-03
      0.405000          0.139506E-03
      0.410000          0.139398E-03
      0.415000          0.139487E-03
      0.420000          0.139670E-03
      0.425000          0.139847E-03
      0.430000          0.139930E-03
      0.435000          0.139847E-03
      0.440000          0.139541E-03
      0.445000          0.138973E-03
      0.450000          0.138122E-03
      0.455000          0.136981E-03
      0.460000          0.135557E-03
      0.465000          0.133869E-03
      0.470000          0.131940E-03
      0.475000          0.129801E-03
      0.480000          0.127483E-03
      0.485000          0.125016E-03
      0.490000          0.122430E-03
      0.495000          0.119750E-03
      0.500000          0.116997E-03
