 I_abs(s)[cm^-1]/c[mg/ml]
       0.00000          0.149024E-01
      0.500000E-02      0.148357E-01
      0.100000E-01      0.146371E-01
      0.150000E-01      0.143118E-01
      0.200000E-01      0.138680E-01
      0.250000E-01      0.133167E-01
      0.300000E-01      0.126713E-01
      0.350000E-01      0.119472E-01
      0.400000E-01      0.111611E-01
      0.450000E-01      0.103304E-01
      0.500000E-01      0.947281E-02
      0.550000E-01      0.860542E-02
      0.600000E-01      0.774448E-02
      0.650000E-01      0.690475E-02
      0.700000E-01      0.609920E-02
      0.750000E-01      0.533873E-02
      0.800000E-01      0.463192E-02
      0.850000E-01      0.398502E-02
      0.900000E-01      0.340198E-02
      0.950000E-01      0.288449E-02
      0.100000          0.243227E-02
      0.105000          0.204325E-02
      0.110000          0.171393E-02
      0.115000          0.143965E-02
      0.120000          0.121497E-02
      0.125000          0.103397E-02
      0.130000          0.890551E-03
      0.135000          0.778721E-03
      0.140000          0.692784E-03
      0.145000          0.627529E-03
      0.150000          0.578345E-03
      0.155000          0.541287E-03
      0.160000          0.513101E-03
      0.165000          0.491207E-03
      0.170000          0.473645E-03
      0.175000          0.459005E-03
      0.180000          0.446338E-03
      0.185000          0.435057E-03
      0.190000          0.424842E-03
      0.195000          0.415556E-03
      0.200000          0.407161E-03
      0.205000          0.399658E-03
      0.210000          0.393039E-03
      0.215000          0.387256E-03
      0.220000          0.382209E-03
      0.225000          0.377736E-03
      0.230000          0.373629E-03
      0.235000          0.369644E-03
      0.240000          0.365522E-03
      0.245000          0.361010E-03
      0.250000          0.355883E-03
      0.255000          0.349958E-03
      0.260000          0.343108E-03
      0.265000          0.335270E-03
      0.270000          0.326445E-03
      0.275000          0.316697E-03
      0.280000          0.306142E-03
      0.285000          0.294942E-03
      0.290000          0.283290E-03
      0.295000          0.271395E-03
      0.300000          0.259469E-03
      0.305000          0.247717E-03
      0.310000          0.236324E-03
      0.315000          0.225447E-03
      0.320000          0.215211E-03
      0.325000          0.205704E-03
      0.330000          0.196982E-03
      0.335000          0.189063E-03
      0.340000          0.181938E-03
      0.345000          0.175571E-03
      0.350000          0.169909E-03
      0.355000          0.164882E-03
      0.360000          0.160413E-03
      0.365000          0.156421E-03
      0.370000          0.152827E-03
      0.375000          0.149555E-03
      0.380000          0.146538E-03
      0.385000          0.143716E-03
      0.390000          0.141038E-03
      0.395000          0.138464E-03
      0.400000          0.135962E-03
      0.405000          0.133512E-03
      0.410000          0.131099E-03
      0.415000          0.128716E-03
      0.420000          0.126362E-03
      0.425000          0.124042E-03
      0.430000          0.121764E-03
      0.435000          0.119538E-03
      0.440000          0.117379E-03
      0.445000          0.115301E-03
      0.450000          0.113320E-03
      0.455000          0.111449E-03
      0.460000          0.109704E-03
      0.465000          0.108096E-03
      0.470000          0.106634E-03
      0.475000          0.105325E-03
      0.480000          0.104172E-03
      0.485000          0.103174E-03
      0.490000          0.102324E-03
      0.495000          0.101613E-03
      0.500000          0.101026E-03
