 I_abs(s)[cm^-1]/c[mg/ml]
       0.00000          0.136743E-01
      0.500000E-02      0.135851E-01
      0.100000E-01      0.133210E-01
      0.150000E-01      0.128928E-01
      0.200000E-01      0.123176E-01
      0.250000E-01      0.116177E-01
      0.300000E-01      0.108197E-01
      0.350000E-01      0.995222E-02
      0.400000E-01      0.904508E-02
      0.450000E-01      0.812710E-02
      0.500000E-01      0.722487E-02
      0.550000E-01      0.636154E-02
      0.600000E-01      0.555587E-02
      0.650000E-01      0.482172E-02
      0.700000E-01      0.416786E-02
      0.750000E-01      0.359814E-02
      0.800000E-01      0.311195E-02
      0.850000E-01      0.270495E-02
      0.900000E-01      0.236993E-02
      0.950000E-01      0.209774E-02
      0.100000          0.187828E-02
      0.105000          0.170128E-02
      0.110000          0.155708E-02
      0.115000          0.143718E-02
      0.120000          0.133454E-02
      0.125000          0.124379E-02
      0.130000          0.116118E-02
      0.135000          0.108444E-02
      0.140000          0.101251E-02
      0.145000          0.945203E-03
      0.150000          0.882897E-03
      0.155000          0.826191E-03
      0.160000          0.775648E-03
      0.165000          0.731601E-03
      0.170000          0.694037E-03
      0.175000          0.662558E-03
      0.180000          0.636409E-03
      0.185000          0.614561E-03
      0.190000          0.595828E-03
      0.195000          0.578989E-03
      0.200000          0.562913E-03
      0.205000          0.546659E-03
      0.210000          0.529545E-03
      0.215000          0.511188E-03
      0.220000          0.491494E-03
      0.225000          0.470634E-03
      0.230000          0.448984E-03
      0.235000          0.427055E-03
      0.240000          0.405418E-03
      0.245000          0.384635E-03
      0.250000          0.365197E-03
      0.255000          0.347478E-03
      0.260000          0.331720E-03
      0.265000          0.318018E-03
      0.270000          0.306331E-03
      0.275000          0.296513E-03
      0.280000          0.288332E-03
      0.285000          0.281512E-03
      0.290000          0.275763E-03
      0.295000          0.270807E-03
      0.300000          0.266399E-03
      0.305000          0.262340E-03
      0.310000          0.258483E-03
      0.315000          0.254725E-03
      0.320000          0.251005E-03
      0.325000          0.247291E-03
      0.330000          0.243569E-03
      0.335000          0.239832E-03
      0.340000          0.236072E-03
      0.345000          0.232277E-03
      0.350000          0.228428E-03
      0.355000          0.224498E-03
      0.360000          0.220460E-03
      0.365000          0.216289E-03
      0.370000          0.211968E-03
      0.375000          0.207492E-03
      0.380000          0.202868E-03
      0.385000          0.198120E-03
      0.390000          0.193286E-03
      0.395000          0.188410E-03
      0.400000          0.183546E-03
      0.405000          0.178744E-03
      0.410000          0.174052E-03
      0.415000          0.169506E-03
      0.420000          0.165130E-03
      0.425000          0.160934E-03
      0.430000          0.156913E-03
      0.435000          0.153051E-03
      0.440000          0.149322E-03
      0.445000          0.145698E-03
      0.450000          0.142151E-03
      0.455000          0.138656E-03
      0.460000          0.135199E-03
      0.465000          0.131776E-03
      0.470000          0.128395E-03
      0.475000          0.125074E-03
      0.480000          0.121840E-03
      0.485000          0.118727E-03
      0.490000          0.115769E-03
      0.495000          0.112995E-03
      0.500000          0.110429E-03
