 I_abs(s)[cm^-1]/c[mg/ml]
       0.00000          0.143133E-01
      0.500000E-02      0.142408E-01
      0.100000E-01      0.140257E-01
      0.150000E-01      0.136751E-01
      0.200000E-01      0.132003E-01
      0.250000E-01      0.126162E-01
      0.300000E-01      0.119409E-01
      0.350000E-01      0.111944E-01
      0.400000E-01      0.103976E-01
      0.450000E-01      0.957171E-02
      0.500000E-01      0.873720E-02
      0.550000E-01      0.791276E-02
      0.600000E-01      0.711486E-02
      0.650000E-01      0.635715E-02
      0.700000E-01      0.565025E-02
      0.750000E-01      0.500153E-02
      0.800000E-01      0.441531E-02
      0.850000E-01      0.389297E-02
      0.900000E-01      0.343344E-02
      0.950000E-01      0.303354E-02
      0.100000          0.268855E-02
      0.105000          0.239273E-02
      0.110000          0.213976E-02
      0.115000          0.192322E-02
      0.120000          0.173693E-02
      0.125000          0.157525E-02
      0.130000          0.143326E-02
      0.135000          0.130686E-02
      0.140000          0.119279E-02
      0.145000          0.108860E-02
      0.150000          0.992548E-03
      0.155000          0.903508E-03
      0.160000          0.820809E-03
      0.165000          0.744114E-03
      0.170000          0.673297E-03
      0.175000          0.608336E-03
      0.180000          0.549232E-03
      0.185000          0.495953E-03
      0.190000          0.448399E-03
      0.195000          0.406385E-03
      0.200000          0.369647E-03
      0.205000          0.337851E-03
      0.210000          0.310610E-03
      0.215000          0.287507E-03
      0.220000          0.268113E-03
      0.225000          0.252005E-03
      0.230000          0.238778E-03
      0.235000          0.228051E-03
      0.240000          0.219477E-03
      0.245000          0.212740E-03
      0.250000          0.207554E-03
      0.255000          0.203663E-03
      0.260000          0.200838E-03
      0.265000          0.198870E-03
      0.270000          0.197574E-03
      0.275000          0.196783E-03
      0.280000          0.196348E-03
      0.285000          0.196139E-03
      0.290000          0.196039E-03
      0.295000          0.195952E-03
      0.300000          0.195794E-03
      0.305000          0.195498E-03
      0.310000          0.195012E-03
      0.315000          0.194294E-03
      0.320000          0.193318E-03
      0.325000          0.192066E-03
      0.330000          0.190529E-03
      0.335000          0.188709E-03
      0.340000          0.186613E-03
      0.345000          0.184255E-03
      0.350000          0.181655E-03
      0.355000          0.178837E-03
      0.360000          0.175827E-03
      0.365000          0.172659E-03
      0.370000          0.169364E-03
      0.375000          0.165977E-03
      0.380000          0.162535E-03
      0.385000          0.159074E-03
      0.390000          0.155630E-03
      0.395000          0.152240E-03
      0.400000          0.148937E-03
      0.405000          0.145754E-03
      0.410000          0.142722E-03
      0.415000          0.139867E-03
      0.420000          0.137211E-03
      0.425000          0.134769E-03
      0.430000          0.132553E-03
      0.435000          0.130563E-03
      0.440000          0.128793E-03
      0.445000          0.127229E-03
      0.450000          0.125846E-03
      0.455000          0.124612E-03
      0.460000          0.123490E-03
      0.465000          0.122434E-03
      0.470000          0.121400E-03
      0.475000          0.120340E-03
      0.480000          0.119211E-03
      0.485000          0.117973E-03
      0.490000          0.116597E-03
      0.495000          0.115060E-03
      0.500000          0.113351E-03
