 I_abs(s)[cm^-1]/c[mg/ml]
       0.00000          0.147900E-01
      0.500000E-02      0.146833E-01
      0.100000E-01      0.143690E-01
      0.150000E-01      0.138639E-01
      0.200000E-01      0.131943E-01
      0.250000E-01      0.123932E-01
      0.300000E-01      0.114979E-01
      0.350000E-01      0.105461E-01
      0.400000E-01      0.957379E-02
      0.450000E-01      0.861241E-02
      0.500000E-01      0.768745E-02
      0.550000E-01      0.681766E-02
      0.600000E-01      0.601512E-02
      0.650000E-01      0.528593E-02
      0.700000E-01      0.463131E-02
      0.750000E-01      0.404893E-02
      0.800000E-01      0.353425E-02
      0.850000E-01      0.308156E-02
      0.900000E-01      0.268489E-02
      0.950000E-01      0.233845E-02
      0.100000          0.203693E-02
      0.105000          0.177550E-02
      0.110000          0.154973E-02
      0.115000          0.135550E-02
      0.120000          0.118890E-02
      0.125000          0.104622E-02
      0.130000          0.923989E-03
      0.135000          0.819060E-03
      0.140000          0.728686E-03
      0.145000          0.650579E-03
      0.150000          0.582921E-03
      0.155000          0.524310E-03
      0.160000          0.473680E-03
      0.165000          0.430181E-03
      0.170000          0.393069E-03
      0.175000          0.361623E-03
      0.180000          0.335092E-03
      0.185000          0.312699E-03
      0.190000          0.293668E-03
      0.195000          0.277282E-03
      0.200000          0.262942E-03
      0.205000          0.250209E-03
      0.210000          0.238831E-03
      0.215000          0.228727E-03
      0.220000          0.219954E-03
      0.225000          0.212650E-03
      0.230000          0.206975E-03
      0.235000          0.203051E-03
      0.240000          0.200914E-03
      0.245000          0.200498E-03
      0.250000          0.201621E-03
      0.255000          0.204006E-03
      0.260000          0.207302E-03
      0.265000          0.211124E-03
      0.270000          0.215082E-03
      0.275000          0.218813E-03
      0.280000          0.222007E-03
      0.285000          0.224416E-03
      0.290000          0.225871E-03
      0.295000          0.226271E-03
      0.300000          0.225589E-03
      0.305000          0.223856E-03
      0.310000          0.221156E-03
      0.315000          0.217610E-03
      0.320000          0.213374E-03
      0.325000          0.208620E-03
      0.330000          0.203535E-03
      0.335000          0.198306E-03
      0.340000          0.193117E-03
      0.345000          0.188137E-03
      0.350000          0.183510E-03
      0.355000          0.179353E-03
      0.360000          0.175740E-03
      0.365000          0.172704E-03
      0.370000          0.170233E-03
      0.375000          0.168274E-03
      0.380000          0.166737E-03
      0.385000          0.165511E-03
      0.390000          0.164478E-03
      0.395000          0.163523E-03
      0.400000          0.162554E-03
      0.405000          0.161505E-03
      0.410000          0.160342E-03
      0.415000          0.159055E-03
      0.420000          0.157656E-03
      0.425000          0.156161E-03
      0.430000          0.154581E-03
      0.435000          0.152910E-03
      0.440000          0.151121E-03
      0.445000          0.149167E-03
      0.450000          0.146991E-03
      0.455000          0.144531E-03
      0.460000          0.141741E-03
      0.465000          0.138596E-03
      0.470000          0.135103E-03
      0.475000          0.131305E-03
      0.480000          0.127271E-03
      0.485000          0.123093E-03
      0.490000          0.118868E-03
      0.495000          0.114692E-03
      0.500000          0.110644E-03
