 I_abs(s)[cm^-1]/c[mg/ml]
       0.00000          0.144793E-01
      0.500000E-02      0.144077E-01
      0.100000E-01      0.141951E-01
      0.150000E-01      0.138478E-01
      0.200000E-01      0.133764E-01
      0.250000E-01      0.127944E-01
      0.300000E-01      0.121185E-01
      0.350000E-01      0.113674E-01
      0.400000E-01      0.105609E-01
      0.450000E-01      0.971918E-02
      0.500000E-01      0.886210E-02
      0.550000E-01      0.800824E-02
      0.600000E-01      0.717442E-02
      0.650000E-01      0.637509E-02
      0.700000E-01      0.562206E-02
      0.750000E-01      0.492431E-02
      0.800000E-01      0.428792E-02
      0.850000E-01      0.371623E-02
      0.900000E-01      0.321007E-02
      0.950000E-01      0.276814E-02
      0.100000          0.238733E-02
      0.105000          0.206324E-02
      0.110000          0.179057E-02
      0.115000          0.156354E-02
      0.120000          0.137627E-02
      0.125000          0.122302E-02
      0.130000          0.109849E-02
      0.135000          0.997883E-03
      0.140000          0.917054E-03
      0.145000          0.852470E-03
      0.150000          0.801188E-03
      0.155000          0.760781E-03
      0.160000          0.729242E-03
      0.165000          0.704882E-03
      0.170000          0.686237E-03
      0.175000          0.671991E-03
      0.180000          0.660921E-03
      0.185000          0.651864E-03
      0.190000          0.643715E-03
      0.195000          0.635434E-03
      0.200000          0.626084E-03
      0.205000          0.614857E-03
      0.210000          0.601122E-03
      0.215000          0.584453E-03
      0.220000          0.564652E-03
      0.225000          0.541757E-03
      0.230000          0.516034E-03
      0.235000          0.487952E-03
      0.240000          0.458148E-03
      0.245000          0.427370E-03
      0.250000          0.396431E-03
      0.255000          0.366142E-03
      0.260000          0.337262E-03
      0.265000          0.310449E-03
      0.270000          0.286225E-03
      0.275000          0.264946E-03
      0.280000          0.246795E-03
      0.285000          0.231786E-03
      0.290000          0.219776E-03
      0.295000          0.210489E-03
      0.300000          0.203553E-03
      0.305000          0.198528E-03
      0.310000          0.194948E-03
      0.315000          0.192353E-03
      0.320000          0.190318E-03
      0.325000          0.188474E-03
      0.330000          0.186526E-03
      0.335000          0.184260E-03
      0.340000          0.181542E-03
      0.345000          0.178316E-03
      0.350000          0.174586E-03
      0.355000          0.170413E-03
      0.360000          0.165889E-03
      0.365000          0.161129E-03
      0.370000          0.156254E-03
      0.375000          0.151380E-03
      0.380000          0.146609E-03
      0.385000          0.142023E-03
      0.390000          0.137681E-03
      0.395000          0.133623E-03
      0.400000          0.129864E-03
      0.405000          0.126405E-03
      0.410000          0.123235E-03
      0.415000          0.120335E-03
      0.420000          0.117680E-03
      0.425000          0.115247E-03
      0.430000          0.113014E-03
      0.435000          0.110961E-03
      0.440000          0.109072E-03
      0.445000          0.107332E-03
      0.450000          0.105730E-03
      0.455000          0.104252E-03
      0.460000          0.102888E-03
      0.465000          0.101623E-03
      0.470000          0.100441E-03
      0.475000          0.993272E-04
      0.480000          0.982634E-04
      0.485000          0.972331E-04
      0.490000          0.962214E-04
      0.495000          0.952161E-04
      0.500000          0.942093E-04
