 I_abs(s)[cm^-1]/c[mg/ml]
       0.00000          0.147580E-01
      0.500000E-02      0.146907E-01
      0.100000E-01      0.144908E-01
      0.150000E-01      0.141638E-01
      0.200000E-01      0.137188E-01
      0.250000E-01      0.131679E-01
      0.300000E-01      0.125256E-01
      0.350000E-01      0.118084E-01
      0.400000E-01      0.110339E-01
      0.450000E-01      0.102202E-01
      0.500000E-01      0.938512E-02
      0.550000E-01      0.854577E-02
      0.600000E-01      0.771768E-02
      0.650000E-01      0.691462E-02
      0.700000E-01      0.614814E-02
      0.750000E-01      0.542745E-02
      0.800000E-01      0.475935E-02
      0.850000E-01      0.414825E-02
      0.900000E-01      0.359639E-02
      0.950000E-01      0.310405E-02
      0.100000          0.266983E-02
      0.105000          0.229104E-02
      0.110000          0.196399E-02
      0.115000          0.168433E-02
      0.120000          0.144736E-02
      0.125000          0.124827E-02
      0.130000          0.108238E-02
      0.135000          0.945218E-03
      0.140000          0.832701E-03
      0.145000          0.741138E-03
      0.150000          0.667264E-03
      0.155000          0.608223E-03
      0.160000          0.561528E-03
      0.165000          0.525023E-03
      0.170000          0.496832E-03
      0.175000          0.475312E-03
      0.180000          0.459020E-03
      0.185000          0.446681E-03
      0.190000          0.437173E-03
      0.195000          0.429516E-03
      0.200000          0.422870E-03
      0.205000          0.416536E-03
      0.210000          0.409958E-03
      0.215000          0.402722E-03
      0.220000          0.394553E-03
      0.225000          0.385308E-03
      0.230000          0.374959E-03
      0.235000          0.363581E-03
      0.240000          0.351324E-03
      0.245000          0.338394E-03
      0.250000          0.325028E-03
      0.255000          0.311470E-03
      0.260000          0.297955E-03
      0.265000          0.284692E-03
      0.270000          0.271855E-03
      0.275000          0.259576E-03
      0.280000          0.247945E-03
      0.285000          0.237014E-03
      0.290000          0.226801E-03
      0.295000          0.217299E-03
      0.300000          0.208484E-03
      0.305000          0.200322E-03
      0.310000          0.192781E-03
      0.315000          0.185826E-03
      0.320000          0.179434E-03
      0.325000          0.173585E-03
      0.330000          0.168269E-03
      0.335000          0.163478E-03
      0.340000          0.159207E-03
      0.345000          0.155450E-03
      0.350000          0.152193E-03
      0.355000          0.149418E-03
      0.360000          0.147095E-03
      0.365000          0.145182E-03
      0.370000          0.143629E-03
      0.375000          0.142377E-03
      0.380000          0.141357E-03
      0.385000          0.140498E-03
      0.390000          0.139728E-03
      0.395000          0.138975E-03
      0.400000          0.138174E-03
      0.405000          0.137268E-03
      0.410000          0.136207E-03
      0.415000          0.134957E-03
      0.420000          0.133492E-03
      0.425000          0.131803E-03
      0.430000          0.129889E-03
      0.435000          0.127762E-03
      0.440000          0.125445E-03
      0.445000          0.122968E-03
      0.450000          0.120364E-03
      0.455000          0.117674E-03
      0.460000          0.114938E-03
      0.465000          0.112194E-03
      0.470000          0.109480E-03
      0.475000          0.106828E-03
      0.480000          0.104265E-03
      0.485000          0.101813E-03
      0.490000          0.994840E-04
      0.495000          0.972865E-04
      0.500000          0.952204E-04
