 I_abs(s)[cm^-1]/c[mg/ml]
       0.00000          0.146462E-01
      0.500000E-02      0.145849E-01
      0.100000E-01      0.144023E-01
      0.150000E-01      0.141029E-01
      0.200000E-01      0.136936E-01
      0.250000E-01      0.131840E-01
      0.300000E-01      0.125855E-01
      0.350000E-01      0.119115E-01
      0.400000E-01      0.111767E-01
      0.450000E-01      0.103962E-01
      0.500000E-01      0.958579E-02
      0.550000E-01      0.876085E-02
      0.600000E-01      0.793617E-02
      0.650000E-01      0.712545E-02
      0.700000E-01      0.634100E-02
      0.750000E-01      0.559345E-02
      0.800000E-01      0.489156E-02
      0.850000E-01      0.424212E-02
      0.900000E-01      0.364991E-02
      0.950000E-01      0.311775E-02
      0.100000          0.264662E-02
      0.105000          0.223585E-02
      0.110000          0.188328E-02
      0.115000          0.158561E-02
      0.120000          0.133855E-02
      0.125000          0.113718E-02
      0.130000          0.976169E-03
      0.135000          0.850038E-03
      0.140000          0.753355E-03
      0.145000          0.680928E-03
      0.150000          0.627943E-03
      0.155000          0.590073E-03
      0.160000          0.563538E-03
      0.165000          0.545136E-03
      0.170000          0.532245E-03
      0.175000          0.522787E-03
      0.180000          0.515189E-03
      0.185000          0.508315E-03
      0.190000          0.501397E-03
      0.195000          0.493964E-03
      0.200000          0.485770E-03
      0.205000          0.476730E-03
      0.210000          0.466865E-03
      0.215000          0.456252E-03
      0.220000          0.444994E-03
      0.225000          0.433194E-03
      0.230000          0.420941E-03
      0.235000          0.408301E-03
      0.240000          0.395322E-03
      0.245000          0.382037E-03
      0.250000          0.368469E-03
      0.255000          0.354644E-03
      0.260000          0.340598E-03
      0.265000          0.326383E-03
      0.270000          0.312069E-03
      0.275000          0.297750E-03
      0.280000          0.283540E-03
      0.285000          0.269568E-03
      0.290000          0.255977E-03
      0.295000          0.242910E-03
      0.300000          0.230510E-03
      0.305000          0.218904E-03
      0.310000          0.208203E-03
      0.315000          0.198492E-03
      0.320000          0.189826E-03
      0.325000          0.182228E-03
      0.330000          0.175690E-03
      0.335000          0.170172E-03
      0.340000          0.165606E-03
      0.345000          0.161900E-03
      0.350000          0.158942E-03
      0.355000          0.156609E-03
      0.360000          0.154770E-03
      0.365000          0.153293E-03
      0.370000          0.152053E-03
      0.375000          0.150932E-03
      0.380000          0.149826E-03
      0.385000          0.148649E-03
      0.390000          0.147330E-03
      0.395000          0.145820E-03
      0.400000          0.144087E-03
      0.405000          0.142117E-03
      0.410000          0.139911E-03
      0.415000          0.137483E-03
      0.420000          0.134861E-03
      0.425000          0.132076E-03
      0.430000          0.129168E-03
      0.435000          0.126178E-03
      0.440000          0.123146E-03
      0.445000          0.120113E-03
      0.450000          0.117113E-03
      0.455000          0.114175E-03
      0.460000          0.111326E-03
      0.465000          0.108583E-03
      0.470000          0.105958E-03
      0.475000          0.103459E-03
      0.480000          0.101086E-03
      0.485000          0.988382E-04
      0.490000          0.967088E-04
      0.495000          0.946907E-04
      0.500000          0.927752E-04
