 I_abs(s)[cm^-1]/c[mg/ml]
       0.00000          0.144872E-01
      0.500000E-02      0.144059E-01
      0.100000E-01      0.141648E-01
      0.150000E-01      0.137727E-01
      0.200000E-01      0.132433E-01
      0.250000E-01      0.125948E-01
      0.300000E-01      0.118488E-01
      0.350000E-01      0.110289E-01
      0.400000E-01      0.101599E-01
      0.450000E-01      0.926613E-02
      0.500000E-01      0.837038E-02
      0.550000E-01      0.749322E-02
      0.600000E-01      0.665204E-02
      0.650000E-01      0.586067E-02
      0.700000E-01      0.512919E-02
      0.750000E-01      0.446395E-02
      0.800000E-01      0.386787E-02
      0.850000E-01      0.334087E-02
      0.900000E-01      0.288047E-02
      0.950000E-01      0.248235E-02
      0.100000          0.214103E-02
      0.105000          0.185041E-02
      0.110000          0.160426E-02
      0.115000          0.139661E-02
      0.120000          0.122200E-02
      0.125000          0.107564E-02
      0.130000          0.953420E-03
      0.135000          0.851909E-03
      0.140000          0.768235E-03
      0.145000          0.699974E-03
      0.150000          0.645022E-03
      0.155000          0.601484E-03
      0.160000          0.567592E-03
      0.165000          0.541660E-03
      0.170000          0.522067E-03
      0.175000          0.507276E-03
      0.180000          0.495872E-03
      0.185000          0.486602E-03
      0.190000          0.478421E-03
      0.195000          0.470526E-03
      0.200000          0.462362E-03
      0.205000          0.453621E-03
      0.210000          0.444213E-03
      0.215000          0.434219E-03
      0.220000          0.423839E-03
      0.225000          0.413327E-03
      0.230000          0.402941E-03
      0.235000          0.392891E-03
      0.240000          0.383306E-03
      0.245000          0.374223E-03
      0.250000          0.365579E-03
      0.255000          0.357231E-03
      0.260000          0.348982E-03
      0.265000          0.340609E-03
      0.270000          0.331899E-03
      0.275000          0.322679E-03
      0.280000          0.312837E-03
      0.285000          0.302340E-03
      0.290000          0.291233E-03
      0.295000          0.279636E-03
      0.300000          0.267729E-03
      0.305000          0.255729E-03
      0.310000          0.243872E-03
      0.315000          0.232390E-03
      0.320000          0.221488E-03
      0.325000          0.211333E-03
      0.330000          0.202042E-03
      0.335000          0.193682E-03
      0.340000          0.186268E-03
      0.345000          0.179776E-03
      0.350000          0.174143E-03
      0.355000          0.169286E-03
      0.360000          0.165108E-03
      0.365000          0.161509E-03
      0.370000          0.158392E-03
      0.375000          0.155666E-03
      0.380000          0.153253E-03
      0.385000          0.151084E-03
      0.390000          0.149103E-03
      0.395000          0.147259E-03
      0.400000          0.145512E-03
      0.405000          0.143825E-03
      0.410000          0.142170E-03
      0.415000          0.140520E-03
      0.420000          0.138858E-03
      0.425000          0.137170E-03
      0.430000          0.135450E-03
      0.435000          0.133698E-03
      0.440000          0.131921E-03
      0.445000          0.130130E-03
      0.450000          0.128340E-03
      0.455000          0.126565E-03
      0.460000          0.124821E-03
      0.465000          0.123118E-03
      0.470000          0.121464E-03
      0.475000          0.119860E-03
      0.480000          0.118301E-03
      0.485000          0.116778E-03
      0.490000          0.115277E-03
      0.495000          0.113783E-03
      0.500000          0.112282E-03
