 I_abs(s)[cm^-1]/c[mg/ml]
       0.00000          0.148863E-01
      0.500000E-02      0.148226E-01
      0.100000E-01      0.146331E-01
      0.150000E-01      0.143228E-01
      0.200000E-01      0.138998E-01
      0.250000E-01      0.133748E-01
      0.300000E-01      0.127609E-01
      0.350000E-01      0.120729E-01
      0.400000E-01      0.113267E-01
      0.450000E-01      0.105387E-01
      0.500000E-01      0.972521E-02
      0.550000E-01      0.890194E-02
      0.600000E-01      0.808346E-02
      0.650000E-01      0.728285E-02
      0.700000E-01      0.651134E-02
      0.750000E-01      0.577820E-02
      0.800000E-01      0.509065E-02
      0.850000E-01      0.445385E-02
      0.900000E-01      0.387104E-02
      0.950000E-01      0.334371E-02
      0.100000          0.287183E-02
      0.105000          0.245409E-02
      0.110000          0.208820E-02
      0.115000          0.177109E-02
      0.120000          0.149921E-02
      0.125000          0.126869E-02
      0.130000          0.107555E-02
      0.135000          0.915809E-03
      0.140000          0.785596E-03
      0.145000          0.681213E-03
      0.150000          0.599178E-03
      0.155000          0.536243E-03
      0.160000          0.489400E-03
      0.165000          0.455882E-03
      0.170000          0.433156E-03
      0.175000          0.418920E-03
      0.180000          0.411101E-03
      0.185000          0.407855E-03
      0.190000          0.407570E-03
      0.195000          0.408869E-03
      0.200000          0.410615E-03
      0.205000          0.411902E-03
      0.210000          0.412056E-03
      0.215000          0.410620E-03
      0.220000          0.407334E-03
      0.225000          0.402112E-03
      0.230000          0.395013E-03
      0.235000          0.386211E-03
      0.240000          0.375957E-03
      0.245000          0.364551E-03
      0.250000          0.352308E-03
      0.255000          0.339540E-03
      0.260000          0.326528E-03
      0.265000          0.313515E-03
      0.270000          0.300696E-03
      0.275000          0.288215E-03
      0.280000          0.276168E-03
      0.285000          0.264611E-03
      0.290000          0.253567E-03
      0.295000          0.243036E-03
      0.300000          0.233004E-03
      0.305000          0.223449E-03
      0.310000          0.214352E-03
      0.315000          0.205696E-03
      0.320000          0.197473E-03
      0.325000          0.189681E-03
      0.330000          0.182322E-03
      0.335000          0.175405E-03
      0.340000          0.168938E-03
      0.345000          0.162927E-03
      0.350000          0.157377E-03
      0.355000          0.152284E-03
      0.360000          0.147641E-03
      0.365000          0.143432E-03
      0.370000          0.139637E-03
      0.375000          0.136231E-03
      0.380000          0.133188E-03
      0.385000          0.130478E-03
      0.390000          0.128073E-03
      0.395000          0.125946E-03
      0.400000          0.124073E-03
      0.405000          0.122432E-03
      0.410000          0.121003E-03
      0.415000          0.119772E-03
      0.420000          0.118723E-03
      0.425000          0.117844E-03
      0.430000          0.117122E-03
      0.435000          0.116544E-03
      0.440000          0.116097E-03
      0.445000          0.115766E-03
      0.450000          0.115534E-03
      0.455000          0.115383E-03
      0.460000          0.115293E-03
      0.465000          0.115242E-03
      0.470000          0.115208E-03
      0.475000          0.115165E-03
      0.480000          0.115091E-03
      0.485000          0.114962E-03
      0.490000          0.114755E-03
      0.495000          0.114448E-03
      0.500000          0.114023E-03
