 I_abs(s)[cm^-1]/c[mg/ml]
       0.00000          0.148783E-01
      0.500000E-02      0.148301E-01
      0.100000E-01      0.146865E-01
      0.150000E-01      0.144503E-01
      0.200000E-01      0.141261E-01
      0.250000E-01      0.137201E-01
      0.300000E-01      0.132399E-01
      0.350000E-01      0.126944E-01
      0.400000E-01      0.120933E-01
      0.450000E-01      0.114472E-01
      0.500000E-01      0.107668E-01
      0.550000E-01      0.100629E-01
      0.600000E-01      0.934615E-02
      0.650000E-01      0.862677E-02
      0.700000E-01      0.791416E-02
      0.750000E-01      0.721687E-02
      0.800000E-01      0.654241E-02
      0.850000E-01      0.589713E-02
      0.900000E-01      0.528618E-02
      0.950000E-01      0.471347E-02
      0.100000          0.418174E-02
      0.105000          0.369257E-02
      0.110000          0.324652E-02
      0.115000          0.284323E-02
      0.120000          0.248151E-02
      0.125000          0.215957E-02
      0.130000          0.187509E-02
      0.135000          0.162537E-02
      0.140000          0.140752E-02
      0.145000          0.121851E-02
      0.150000          0.105532E-02
      0.155000          0.915001E-03
      0.160000          0.794774E-03
      0.165000          0.692045E-03
      0.170000          0.604459E-03
      0.175000          0.529910E-03
      0.180000          0.466545E-03
      0.185000          0.412759E-03
      0.190000          0.367173E-03
      0.195000          0.328617E-03
      0.200000          0.296105E-03
      0.205000          0.268802E-03
      0.210000          0.246008E-03
      0.215000          0.227123E-03
      0.220000          0.211634E-03
      0.225000          0.199094E-03
      0.230000          0.189105E-03
      0.235000          0.181313E-03
      0.240000          0.175392E-03
      0.245000          0.171048E-03
      0.250000          0.168008E-03
      0.255000          0.166024E-03
      0.260000          0.164871E-03
      0.265000          0.164343E-03
      0.270000          0.164262E-03
      0.275000          0.164469E-03
      0.280000          0.164830E-03
      0.285000          0.165232E-03
      0.290000          0.165584E-03
      0.295000          0.165812E-03
      0.300000          0.165862E-03
      0.305000          0.165694E-03
      0.310000          0.165282E-03
      0.315000          0.164610E-03
      0.320000          0.163674E-03
      0.325000          0.162475E-03
      0.330000          0.161023E-03
      0.335000          0.159332E-03
      0.340000          0.157420E-03
      0.345000          0.155310E-03
      0.350000          0.153028E-03
      0.355000          0.150601E-03
      0.360000          0.148061E-03
      0.365000          0.145439E-03
      0.370000          0.142768E-03
      0.375000          0.140081E-03
      0.380000          0.137412E-03
      0.385000          0.134790E-03
      0.390000          0.132247E-03
      0.395000          0.129806E-03
      0.400000          0.127490E-03
      0.405000          0.125317E-03
      0.410000          0.123297E-03
      0.415000          0.121436E-03
      0.420000          0.119735E-03
      0.425000          0.118187E-03
      0.430000          0.116781E-03
      0.435000          0.115499E-03
      0.440000          0.114322E-03
      0.445000          0.113224E-03
      0.450000          0.112179E-03
      0.455000          0.111158E-03
      0.460000          0.110134E-03
      0.465000          0.109081E-03
      0.470000          0.107974E-03
      0.475000          0.106792E-03
      0.480000          0.105520E-03
      0.485000          0.104146E-03
      0.490000          0.102665E-03
      0.495000          0.101077E-03
      0.500000          0.993878E-04
