 I_abs(s)[cm^-1]/c[mg/ml]
       0.00000          0.149910E-01
      0.500000E-02      0.149400E-01
      0.100000E-01      0.147879E-01
      0.150000E-01      0.145379E-01
      0.200000E-01      0.141949E-01
      0.250000E-01      0.137657E-01
      0.300000E-01      0.132586E-01
      0.350000E-01      0.126833E-01
      0.400000E-01      0.120505E-01
      0.450000E-01      0.113713E-01
      0.500000E-01      0.106575E-01
      0.550000E-01      0.992070E-02
      0.600000E-01      0.917243E-02
      0.650000E-01      0.842351E-02
      0.700000E-01      0.768402E-02
      0.750000E-01      0.696301E-02
      0.800000E-01      0.626840E-02
      0.850000E-01      0.560684E-02
      0.900000E-01      0.498367E-02
      0.950000E-01      0.440290E-02
      0.100000          0.386725E-02
      0.105000          0.337823E-02
      0.110000          0.293623E-02
      0.115000          0.254067E-02
      0.120000          0.219011E-02
      0.125000          0.188243E-02
      0.130000          0.161496E-02
      0.135000          0.138466E-02
      0.140000          0.118823E-02
      0.145000          0.102224E-02
      0.150000          0.883254E-03
      0.155000          0.767898E-03
      0.160000          0.672957E-03
      0.165000          0.595416E-03
      0.170000          0.532503E-03
      0.175000          0.481709E-03
      0.180000          0.440802E-03
      0.185000          0.407828E-03
      0.190000          0.381100E-03
      0.195000          0.359184E-03
      0.200000          0.340886E-03
      0.205000          0.325225E-03
      0.210000          0.311416E-03
      0.215000          0.298845E-03
      0.220000          0.287048E-03
      0.225000          0.275694E-03
      0.230000          0.264561E-03
      0.235000          0.253522E-03
      0.240000          0.242525E-03
      0.245000          0.231580E-03
      0.250000          0.220742E-03
      0.255000          0.210100E-03
      0.260000          0.199765E-03
      0.265000          0.189857E-03
      0.270000          0.180496E-03
      0.275000          0.171792E-03
      0.280000          0.163842E-03
      0.285000          0.156718E-03
      0.290000          0.150471E-03
      0.295000          0.145120E-03
      0.300000          0.140660E-03
      0.305000          0.137056E-03
      0.310000          0.134250E-03
      0.315000          0.132160E-03
      0.320000          0.130691E-03
      0.325000          0.129734E-03
      0.330000          0.129175E-03
      0.335000          0.128899E-03
      0.340000          0.128796E-03
      0.345000          0.128763E-03
      0.350000          0.128714E-03
      0.355000          0.128575E-03
      0.360000          0.128293E-03
      0.365000          0.127831E-03
      0.370000          0.127172E-03
      0.375000          0.126313E-03
      0.380000          0.125269E-03
      0.385000          0.124067E-03
      0.390000          0.122740E-03
      0.395000          0.121330E-03
      0.400000          0.119879E-03
      0.405000          0.118432E-03
      0.410000          0.117025E-03
      0.415000          0.115692E-03
      0.420000          0.114460E-03
      0.425000          0.113346E-03
      0.430000          0.112357E-03
      0.435000          0.111495E-03
      0.440000          0.110751E-03
      0.445000          0.110111E-03
      0.450000          0.109556E-03
      0.455000          0.109063E-03
      0.460000          0.108609E-03
      0.465000          0.108169E-03
      0.470000          0.107722E-03
      0.475000          0.107249E-03
      0.480000          0.106734E-03
      0.485000          0.106166E-03
      0.490000          0.105540E-03
      0.495000          0.104853E-03
      0.500000          0.104109E-03
