 I_abs(s)[cm^-1]/c[mg/ml]
       0.00000          0.148301E-01
      0.500000E-02      0.147639E-01
      0.100000E-01      0.145670E-01
      0.150000E-01      0.142450E-01
      0.200000E-01      0.138064E-01
      0.250000E-01      0.132632E-01
      0.300000E-01      0.126293E-01
      0.350000E-01      0.119209E-01
      0.400000E-01      0.111550E-01
      0.450000E-01      0.103494E-01
      0.500000E-01      0.952159E-02
      0.550000E-01      0.868829E-02
      0.600000E-01      0.786490E-02
      0.650000E-01      0.706505E-02
      0.700000E-01      0.630029E-02
      0.750000E-01      0.557987E-02
      0.800000E-01      0.491068E-02
      0.850000E-01      0.429730E-02
      0.900000E-01      0.374211E-02
      0.950000E-01      0.324555E-02
      0.100000          0.280639E-02
      0.105000          0.242205E-02
      0.110000          0.208892E-02
      0.115000          0.180272E-02
      0.120000          0.155879E-02
      0.125000          0.135233E-02
      0.130000          0.117863E-02
      0.135000          0.103325E-02
      0.140000          0.912112E-03
      0.145000          0.811551E-03
      0.150000          0.728360E-03
      0.155000          0.659764E-03
      0.160000          0.603389E-03
      0.165000          0.557206E-03
      0.170000          0.519484E-03
      0.175000          0.488728E-03
      0.180000          0.463637E-03
      0.185000          0.443065E-03
      0.190000          0.425995E-03
      0.195000          0.411527E-03
      0.200000          0.398871E-03
      0.205000          0.387349E-03
      0.210000          0.376400E-03
      0.215000          0.365588E-03
      0.220000          0.354600E-03
      0.225000          0.343252E-03
      0.230000          0.331479E-03
      0.235000          0.319323E-03
      0.240000          0.306916E-03
      0.245000          0.294457E-03
      0.250000          0.282190E-03
      0.255000          0.270376E-03
      0.260000          0.259268E-03
      0.265000          0.249093E-03
      0.270000          0.240032E-03
      0.275000          0.232208E-03
      0.280000          0.225678E-03
      0.285000          0.220436E-03
      0.290000          0.216415E-03
      0.295000          0.213493E-03
      0.300000          0.211507E-03
      0.305000          0.210266E-03
      0.310000          0.209562E-03
      0.315000          0.209186E-03
      0.320000          0.208940E-03
      0.325000          0.208642E-03
      0.330000          0.208139E-03
      0.335000          0.207306E-03
      0.340000          0.206054E-03
      0.345000          0.204321E-03
      0.350000          0.202079E-03
      0.355000          0.199324E-03
      0.360000          0.196075E-03
      0.365000          0.192370E-03
      0.370000          0.188257E-03
      0.375000          0.183796E-03
      0.380000          0.179053E-03
      0.385000          0.174095E-03
      0.390000          0.168993E-03
      0.395000          0.163815E-03
      0.400000          0.158627E-03
      0.405000          0.153496E-03
      0.410000          0.148480E-03
      0.415000          0.143636E-03
      0.420000          0.139015E-03
      0.425000          0.134659E-03
      0.430000          0.130604E-03
      0.435000          0.126876E-03
      0.440000          0.123491E-03
      0.445000          0.120454E-03
      0.450000          0.117761E-03
      0.455000          0.115393E-03
      0.460000          0.113325E-03
      0.465000          0.111523E-03
      0.470000          0.109946E-03
      0.475000          0.108551E-03
      0.480000          0.107290E-03
      0.485000          0.106123E-03
      0.490000          0.105008E-03
      0.495000          0.103914E-03
      0.500000          0.102817E-03
