 I_abs(s)[cm^-1]/c[mg/ml]
       0.00000          0.144396E-01
      0.500000E-02      0.143942E-01
      0.100000E-01      0.142585E-01
      0.150000E-01      0.140352E-01
      0.200000E-01      0.137283E-01
      0.250000E-01      0.133432E-01
      0.300000E-01      0.128869E-01
      0.350000E-01      0.123672E-01
      0.400000E-01      0.117929E-01
      0.450000E-01      0.111737E-01
      0.500000E-01      0.105192E-01
      0.550000E-01      0.983972E-02
      0.600000E-01      0.914516E-02
      0.650000E-01      0.844523E-02
      0.700000E-01      0.774911E-02
      0.750000E-01      0.706527E-02
      0.800000E-01      0.640130E-02
      0.850000E-01      0.576385E-02
      0.900000E-01      0.515849E-02
      0.950000E-01      0.458968E-02
      0.100000          0.406075E-02
      0.105000          0.357395E-02
      0.110000          0.313047E-02
      0.115000          0.273055E-02
      0.120000          0.237353E-02
      0.125000          0.205802E-02
      0.130000          0.178199E-02
      0.135000          0.154291E-02
      0.140000          0.133788E-02
      0.145000          0.116375E-02
      0.150000          0.101724E-02
      0.155000          0.895042E-03
      0.160000          0.793931E-03
      0.165000          0.710810E-03
      0.170000          0.642788E-03
      0.175000          0.587224E-03
      0.180000          0.541748E-03
      0.185000          0.504286E-03
      0.190000          0.473053E-03
      0.195000          0.446553E-03
      0.200000          0.423557E-03
      0.205000          0.403087E-03
      0.210000          0.384382E-03
      0.215000          0.366878E-03
      0.220000          0.350172E-03
      0.225000          0.333998E-03
      0.230000          0.318196E-03
      0.235000          0.302695E-03
      0.240000          0.287483E-03
      0.245000          0.272595E-03
      0.250000          0.258096E-03
      0.255000          0.244071E-03
      0.260000          0.230612E-03
      0.265000          0.217816E-03
      0.270000          0.205773E-03
      0.275000          0.194569E-03
      0.280000          0.184280E-03
      0.285000          0.174968E-03
      0.290000          0.166682E-03
      0.295000          0.159457E-03
      0.300000          0.153310E-03
      0.305000          0.148241E-03
      0.310000          0.144233E-03
      0.315000          0.141249E-03
      0.320000          0.139237E-03
      0.325000          0.138123E-03
      0.330000          0.137819E-03
      0.335000          0.138223E-03
      0.340000          0.139217E-03
      0.345000          0.140677E-03
      0.350000          0.142471E-03
      0.355000          0.144464E-03
      0.360000          0.146523E-03
      0.365000          0.148521E-03
      0.370000          0.150338E-03
      0.375000          0.151868E-03
      0.380000          0.153021E-03
      0.385000          0.153723E-03
      0.390000          0.153922E-03
      0.395000          0.153585E-03
      0.400000          0.152701E-03
      0.405000          0.151278E-03
      0.410000          0.149342E-03
      0.415000          0.146938E-03
      0.420000          0.144123E-03
      0.425000          0.140965E-03
      0.430000          0.137540E-03
      0.435000          0.133928E-03
      0.440000          0.130210E-03
      0.445000          0.126464E-03
      0.450000          0.122765E-03
      0.455000          0.119178E-03
      0.460000          0.115761E-03
      0.465000          0.112560E-03
      0.470000          0.109610E-03
      0.475000          0.106935E-03
      0.480000          0.104544E-03
      0.485000          0.102441E-03
      0.490000          0.100615E-03
      0.495000          0.990488E-04
      0.500000          0.977191E-04
