 I_abs(s)[cm^-1]/c[mg/ml]
       0.00000          0.146701E-01
      0.500000E-02      0.146125E-01
      0.100000E-01      0.144412E-01
      0.150000E-01      0.141605E-01
      0.200000E-01      0.137776E-01
      0.250000E-01      0.133020E-01
      0.300000E-01      0.127452E-01
      0.350000E-01      0.121205E-01
      0.400000E-01      0.114419E-01
      0.450000E-01      0.107241E-01
      0.500000E-01      0.998160E-02
      0.550000E-01      0.922852E-02
      0.600000E-01      0.847788E-02
      0.650000E-01      0.774141E-02
      0.700000E-01      0.702916E-02
      0.750000E-01      0.634940E-02
      0.800000E-01      0.570850E-02
      0.850000E-01      0.511095E-02
      0.900000E-01      0.455946E-02
      0.950000E-01      0.405511E-02
      0.100000          0.359758E-02
      0.105000          0.318541E-02
      0.110000          0.281626E-02
      0.115000          0.248719E-02
      0.120000          0.219487E-02
      0.125000          0.193587E-02
      0.130000          0.170680E-02
      0.135000          0.150443E-02
      0.140000          0.132586E-02
      0.145000          0.116847E-02
      0.150000          0.103003E-02
      0.155000          0.908619E-03
      0.160000          0.802608E-03
      0.165000          0.710600E-03
      0.170000          0.631368E-03
      0.175000          0.563793E-03
      0.180000          0.506814E-03
      0.185000          0.459388E-03
      0.190000          0.420459E-03
      0.195000          0.388953E-03
      0.200000          0.363780E-03
      0.205000          0.343849E-03
      0.210000          0.328094E-03
      0.215000          0.315502E-03
      0.220000          0.305145E-03
      0.225000          0.296209E-03
      0.230000          0.288012E-03
      0.235000          0.280025E-03
      0.240000          0.271871E-03
      0.245000          0.263326E-03
      0.250000          0.254306E-03
      0.255000          0.244845E-03
      0.260000          0.235070E-03
      0.265000          0.225177E-03
      0.270000          0.215396E-03
      0.275000          0.205967E-03
      0.280000          0.197115E-03
      0.285000          0.189029E-03
      0.290000          0.181851E-03
      0.295000          0.175665E-03
      0.300000          0.170495E-03
      0.305000          0.166310E-03
      0.310000          0.163033E-03
      0.315000          0.160546E-03
      0.320000          0.158708E-03
      0.325000          0.157365E-03
      0.330000          0.156366E-03
      0.335000          0.155566E-03
      0.340000          0.154844E-03
      0.345000          0.154102E-03
      0.350000          0.153271E-03
      0.355000          0.152308E-03
      0.360000          0.151198E-03
      0.365000          0.149948E-03
      0.370000          0.148581E-03
      0.375000          0.147129E-03
      0.380000          0.145632E-03
      0.385000          0.144126E-03
      0.390000          0.142644E-03
      0.395000          0.141208E-03
      0.400000          0.139830E-03
      0.405000          0.138511E-03
      0.410000          0.137239E-03
      0.415000          0.135995E-03
      0.420000          0.134751E-03
      0.425000          0.133474E-03
      0.430000          0.132133E-03
      0.435000          0.130694E-03
      0.440000          0.129132E-03
      0.445000          0.127426E-03
      0.450000          0.125563E-03
      0.455000          0.123540E-03
      0.460000          0.121364E-03
      0.465000          0.119048E-03
      0.470000          0.116614E-03
      0.475000          0.114090E-03
      0.480000          0.111508E-03
      0.485000          0.108903E-03
      0.490000          0.106310E-03
      0.495000          0.103762E-03
      0.500000          0.101291E-03
