 I_abs(s)[cm^-1]/c[mg/ml]
       0.00000          0.141483E-01
      0.500000E-02      0.140669E-01
      0.100000E-01      0.138256E-01
      0.150000E-01      0.134325E-01
      0.200000E-01      0.129009E-01
      0.250000E-01      0.122482E-01
      0.300000E-01      0.114954E-01
      0.350000E-01      0.106659E-01
      0.400000E-01      0.978425E-02
      0.450000E-01      0.887517E-02
      0.500000E-01      0.796248E-02
      0.550000E-01      0.706805E-02
      0.600000E-01      0.621103E-02
      0.650000E-01      0.540726E-02
      0.700000E-01      0.466888E-02
      0.750000E-01      0.400417E-02
      0.800000E-01      0.341765E-02
      0.850000E-01      0.291034E-02
      0.900000E-01      0.248019E-02
      0.950000E-01      0.212260E-02
      0.100000          0.183106E-02
      0.105000          0.159776E-02
      0.110000          0.141423E-02
      0.115000          0.127187E-02
      0.120000          0.116242E-02
      0.125000          0.107832E-02
      0.130000          0.101301E-02
      0.135000          0.960969E-03
      0.140000          0.917857E-03
      0.145000          0.880406E-03
      0.150000          0.846324E-03
      0.155000          0.814143E-03
      0.160000          0.783036E-03
      0.165000          0.752640E-03
      0.170000          0.722890E-03
      0.175000          0.693879E-03
      0.180000          0.665750E-03
      0.185000          0.638622E-03
      0.190000          0.612553E-03
      0.195000          0.587525E-03
      0.200000          0.563457E-03
      0.205000          0.540224E-03
      0.210000          0.517693E-03
      0.215000          0.495746E-03
      0.220000          0.474309E-03
      0.225000          0.453362E-03
      0.230000          0.432948E-03
      0.235000          0.413164E-03
      0.240000          0.394149E-03
      0.245000          0.376064E-03
      0.250000          0.359072E-03
      0.255000          0.343315E-03
      0.260000          0.328900E-03
      0.265000          0.315884E-03
      0.270000          0.304268E-03
      0.275000          0.294001E-03
      0.280000          0.284982E-03
      0.285000          0.277073E-03
      0.290000          0.270114E-03
      0.295000          0.263933E-03
      0.300000          0.258362E-03
      0.305000          0.253249E-03
      0.310000          0.248463E-03
      0.315000          0.243903E-03
      0.320000          0.239492E-03
      0.325000          0.235184E-03
      0.330000          0.230950E-03
      0.335000          0.226780E-03
      0.340000          0.222671E-03
      0.345000          0.218627E-03
      0.350000          0.214648E-03
      0.355000          0.210730E-03
      0.360000          0.206865E-03
      0.365000          0.203039E-03
      0.370000          0.199232E-03
      0.375000          0.195423E-03
      0.380000          0.191590E-03
      0.385000          0.187716E-03
      0.390000          0.183785E-03
      0.395000          0.179791E-03
      0.400000          0.175730E-03
      0.405000          0.171607E-03
      0.410000          0.167431E-03
      0.415000          0.163213E-03
      0.420000          0.158969E-03
      0.425000          0.154713E-03
      0.430000          0.150460E-03
      0.435000          0.146222E-03
      0.440000          0.142012E-03
      0.445000          0.137839E-03
      0.450000          0.133713E-03
      0.455000          0.129647E-03
      0.460000          0.125653E-03
      0.465000          0.121747E-03
      0.470000          0.117948E-03
      0.475000          0.114278E-03
      0.480000          0.110764E-03
      0.485000          0.107434E-03
      0.490000          0.104318E-03
      0.495000          0.101444E-03
      0.500000          0.988381E-04
