 I_abs(s)[cm^-1]/c[mg/ml]
       0.00000          0.142424E-01
      0.500000E-02      0.141776E-01
      0.100000E-01      0.139848E-01
      0.150000E-01      0.136695E-01
      0.200000E-01      0.132401E-01
      0.250000E-01      0.127083E-01
      0.300000E-01      0.120879E-01
      0.350000E-01      0.113948E-01
      0.400000E-01      0.106462E-01
      0.450000E-01      0.985956E-02
      0.500000E-01      0.905263E-02
      0.550000E-01      0.824227E-02
      0.600000E-01      0.744415E-02
      0.650000E-01      0.667222E-02
      0.700000E-01      0.593833E-02
      0.750000E-01      0.525202E-02
      0.800000E-01      0.462036E-02
      0.850000E-01      0.404798E-02
      0.900000E-01      0.353711E-02
      0.950000E-01      0.308784E-02
      0.100000          0.269836E-02
      0.105000          0.236529E-02
      0.110000          0.208404E-02
      0.115000          0.184916E-02
      0.120000          0.165473E-02
      0.125000          0.149468E-02
      0.130000          0.136306E-02
      0.135000          0.125431E-02
      0.140000          0.116340E-02
      0.145000          0.108596E-02
      0.150000          0.101836E-02
      0.155000          0.957699E-03
      0.160000          0.901784E-03
      0.165000          0.849048E-03
      0.170000          0.798474E-03
      0.175000          0.749483E-03
      0.180000          0.701832E-03
      0.185000          0.655511E-03
      0.190000          0.610654E-03
      0.195000          0.567460E-03
      0.200000          0.526143E-03
      0.205000          0.486887E-03
      0.210000          0.449829E-03
      0.215000          0.415051E-03
      0.220000          0.382581E-03
      0.225000          0.352413E-03
      0.230000          0.324513E-03
      0.235000          0.298843E-03
      0.240000          0.275370E-03
      0.245000          0.254078E-03
      0.250000          0.234972E-03
      0.255000          0.218075E-03
      0.260000          0.203422E-03
      0.265000          0.191047E-03
      0.270000          0.180974E-03
      0.275000          0.173197E-03
      0.280000          0.167672E-03
      0.285000          0.164301E-03
      0.290000          0.162932E-03
      0.295000          0.163352E-03
      0.300000          0.165290E-03
      0.305000          0.168431E-03
      0.310000          0.172422E-03
      0.315000          0.176891E-03
      0.320000          0.181464E-03
      0.325000          0.185785E-03
      0.330000          0.189530E-03
      0.335000          0.192428E-03
      0.340000          0.194267E-03
      0.345000          0.194908E-03
      0.350000          0.194285E-03
      0.355000          0.192407E-03
      0.360000          0.189349E-03
      0.365000          0.185246E-03
      0.370000          0.180281E-03
      0.375000          0.174666E-03
      0.380000          0.168634E-03
      0.385000          0.162418E-03
      0.390000          0.156238E-03
      0.395000          0.150290E-03
      0.400000          0.144734E-03
      0.405000          0.139692E-03
      0.410000          0.135237E-03
      0.415000          0.131399E-03
      0.420000          0.128168E-03
      0.425000          0.125494E-03
      0.430000          0.123301E-03
      0.435000          0.121491E-03
      0.440000          0.119956E-03
      0.445000          0.118588E-03
      0.450000          0.117283E-03
      0.455000          0.115955E-03
      0.460000          0.114536E-03
      0.465000          0.112982E-03
      0.470000          0.111274E-03
      0.475000          0.109419E-03
      0.480000          0.107442E-03
      0.485000          0.105391E-03
      0.490000          0.103324E-03
      0.495000          0.101306E-03
      0.500000          0.994052E-04
