 I_abs(s)[cm^-1]/c[mg/ml]
       0.00000          0.145269E-01
      0.500000E-02      0.144733E-01
      0.100000E-01      0.143138E-01
      0.150000E-01      0.140516E-01
      0.200000E-01      0.136922E-01
      0.250000E-01      0.132429E-01
      0.300000E-01      0.127129E-01
      0.350000E-01      0.121126E-01
      0.400000E-01      0.114536E-01
      0.450000E-01      0.107482E-01
      0.500000E-01      0.100092E-01
      0.550000E-01      0.924930E-02
      0.600000E-01      0.848106E-02
      0.650000E-01      0.771629E-02
      0.700000E-01      0.696598E-02
      0.750000E-01      0.623994E-02
      0.800000E-01      0.554668E-02
      0.850000E-01      0.489327E-02
      0.900000E-01      0.428525E-02
      0.950000E-01      0.372663E-02
      0.100000          0.321990E-02
      0.105000          0.276613E-02
      0.110000          0.236509E-02
      0.115000          0.201538E-02
      0.120000          0.171461E-02
      0.125000          0.145960E-02
      0.130000          0.124656E-02
      0.135000          0.107130E-02
      0.140000          0.929378E-03
      0.145000          0.816305E-03
      0.150000          0.727660E-03
      0.155000          0.659231E-03
      0.160000          0.607105E-03
      0.165000          0.567745E-03
      0.170000          0.538032E-03
      0.175000          0.515294E-03
      0.180000          0.497305E-03
      0.185000          0.482273E-03
      0.190000          0.468811E-03
      0.195000          0.455899E-03
      0.200000          0.442835E-03
      0.205000          0.429191E-03
      0.210000          0.414756E-03
      0.215000          0.399493E-03
      0.220000          0.383490E-03
      0.225000          0.366923E-03
      0.230000          0.350021E-03
      0.235000          0.333034E-03
      0.240000          0.316219E-03
      0.245000          0.299815E-03
      0.250000          0.284037E-03
      0.255000          0.269070E-03
      0.260000          0.255060E-03
      0.265000          0.242122E-03
      0.270000          0.230332E-03
      0.275000          0.219736E-03
      0.280000          0.210352E-03
      0.285000          0.202170E-03
      0.290000          0.195159E-03
      0.295000          0.189269E-03
      0.300000          0.184432E-03
      0.305000          0.180566E-03
      0.310000          0.177576E-03
      0.315000          0.175357E-03
      0.320000          0.173796E-03
      0.325000          0.172772E-03
      0.330000          0.172163E-03
      0.335000          0.171842E-03
      0.340000          0.171685E-03
      0.345000          0.171571E-03
      0.350000          0.171387E-03
      0.355000          0.171030E-03
      0.360000          0.170408E-03
      0.365000          0.169444E-03
      0.370000          0.168081E-03
      0.375000          0.166277E-03
      0.380000          0.164010E-03
      0.385000          0.161280E-03
      0.390000          0.158103E-03
      0.395000          0.154514E-03
      0.400000          0.150565E-03
      0.405000          0.146318E-03
      0.410000          0.141849E-03
      0.415000          0.137238E-03
      0.420000          0.132572E-03
      0.425000          0.127936E-03
      0.430000          0.123411E-03
      0.435000          0.119074E-03
      0.440000          0.114989E-03
      0.445000          0.111213E-03
      0.450000          0.107788E-03
      0.455000          0.104739E-03
      0.460000          0.102081E-03
      0.465000          0.998111E-04
      0.470000          0.979148E-04
      0.475000          0.963644E-04
      0.480000          0.951224E-04
      0.485000          0.941430E-04
      0.490000          0.933749E-04
      0.495000          0.927638E-04
      0.500000          0.922548E-04
