 I_abs(s)[cm^-1]/c[mg/ml]
       0.00000          0.146861E-01
      0.500000E-02      0.146230E-01
      0.100000E-01      0.144355E-01
      0.150000E-01      0.141286E-01
      0.200000E-01      0.137104E-01
      0.250000E-01      0.131916E-01
      0.300000E-01      0.125855E-01
      0.350000E-01      0.119069E-01
      0.400000E-01      0.111719E-01
      0.450000E-01      0.103972E-01
      0.500000E-01      0.959924E-02
      0.550000E-01      0.879402E-02
      0.600000E-01      0.799632E-02
      0.650000E-01      0.721934E-02
      0.700000E-01      0.647440E-02
      0.750000E-01      0.577068E-02
      0.800000E-01      0.511516E-02
      0.850000E-01      0.451257E-02
      0.900000E-01      0.396553E-02
      0.950000E-01      0.347473E-02
      0.100000          0.303917E-02
      0.105000          0.265644E-02
      0.110000          0.232306E-02
      0.115000          0.203481E-02
      0.120000          0.178702E-02
      0.125000          0.157483E-02
      0.130000          0.139348E-02
      0.135000          0.123845E-02
      0.140000          0.110565E-02
      0.145000          0.991444E-03
      0.150000          0.892755E-03
      0.155000          0.807029E-03
      0.160000          0.732210E-03
      0.165000          0.666685E-03
      0.170000          0.609214E-03
      0.175000          0.558845E-03
      0.180000          0.514845E-03
      0.185000          0.476623E-03
      0.190000          0.443675E-03
      0.195000          0.415535E-03
      0.200000          0.391746E-03
      0.205000          0.371841E-03
      0.210000          0.355339E-03
      0.215000          0.341746E-03
      0.220000          0.330566E-03
      0.225000          0.321317E-03
      0.230000          0.313542E-03
      0.235000          0.306825E-03
      0.240000          0.300801E-03
      0.245000          0.295162E-03
      0.250000          0.289664E-03
      0.255000          0.284118E-03
      0.260000          0.278395E-03
      0.265000          0.272411E-03
      0.270000          0.266128E-03
      0.275000          0.259537E-03
      0.280000          0.252658E-03
      0.285000          0.245527E-03
      0.290000          0.238197E-03
      0.295000          0.230728E-03
      0.300000          0.223188E-03
      0.305000          0.215651E-03
      0.310000          0.208194E-03
      0.315000          0.200897E-03
      0.320000          0.193843E-03
      0.325000          0.187113E-03
      0.330000          0.180784E-03
      0.335000          0.174929E-03
      0.340000          0.169607E-03
      0.345000          0.164866E-03
      0.350000          0.160733E-03
      0.355000          0.157217E-03
      0.360000          0.154301E-03
      0.365000          0.151947E-03
      0.370000          0.150091E-03
      0.375000          0.148652E-03
      0.380000          0.147532E-03
      0.385000          0.146621E-03
      0.390000          0.145806E-03
      0.395000          0.144974E-03
      0.400000          0.144022E-03
      0.405000          0.142861E-03
      0.410000          0.141421E-03
      0.415000          0.139655E-03
      0.420000          0.137540E-03
      0.425000          0.135079E-03
      0.430000          0.132300E-03
      0.435000          0.129250E-03
      0.440000          0.125994E-03
      0.445000          0.122606E-03
      0.450000          0.119172E-03
      0.455000          0.115772E-03
      0.460000          0.112487E-03
      0.465000          0.109387E-03
      0.470000          0.106529E-03
      0.475000          0.103955E-03
      0.480000          0.101694E-03
      0.485000          0.997545E-04
      0.490000          0.981328E-04
      0.495000          0.968110E-04
      0.500000          0.957602E-04
