 I_abs(s)[cm^-1]/c[mg/ml]
       0.00000          0.145348E-01
      0.500000E-02      0.144730E-01
      0.100000E-01      0.142891E-01
      0.150000E-01      0.139881E-01
      0.200000E-01      0.135778E-01
      0.250000E-01      0.130688E-01
      0.300000E-01      0.124741E-01
      0.350000E-01      0.118079E-01
      0.400000E-01      0.110862E-01
      0.450000E-01      0.103248E-01
      0.500000E-01      0.954007E-02
      0.550000E-01      0.874731E-02
      0.600000E-01      0.796089E-02
      0.650000E-01      0.719358E-02
      0.700000E-01      0.645636E-02
      0.750000E-01      0.575813E-02
      0.800000E-01      0.510571E-02
      0.850000E-01      0.450380E-02
      0.900000E-01      0.395509E-02
      0.950000E-01      0.346049E-02
      0.100000          0.301931E-02
      0.105000          0.262958E-02
      0.110000          0.228836E-02
      0.115000          0.199198E-02
      0.120000          0.173635E-02
      0.125000          0.151723E-02
      0.130000          0.133038E-02
      0.135000          0.117175E-02
      0.140000          0.103761E-02
      0.145000          0.924570E-03
      0.150000          0.829648E-03
      0.155000          0.750249E-03
      0.160000          0.684139E-03
      0.165000          0.629402E-03
      0.170000          0.584387E-03
      0.175000          0.547656E-03
      0.180000          0.517940E-03
      0.185000          0.494093E-03
      0.190000          0.475073E-03
      0.195000          0.459918E-03
      0.200000          0.447746E-03
      0.205000          0.437750E-03
      0.210000          0.429214E-03
      0.215000          0.421512E-03
      0.220000          0.414127E-03
      0.225000          0.406650E-03
      0.230000          0.398790E-03
      0.235000          0.390362E-03
      0.240000          0.381287E-03
      0.245000          0.371571E-03
      0.250000          0.361295E-03
      0.255000          0.350589E-03
      0.260000          0.339615E-03
      0.265000          0.328544E-03
      0.270000          0.317544E-03
      0.275000          0.306761E-03
      0.280000          0.296310E-03
      0.285000          0.286272E-03
      0.290000          0.276690E-03
      0.295000          0.267574E-03
      0.300000          0.258902E-03
      0.305000          0.250631E-03
      0.310000          0.242707E-03
      0.315000          0.235066E-03
      0.320000          0.227649E-03
      0.325000          0.220404E-03
      0.330000          0.213291E-03
      0.335000          0.206286E-03
      0.340000          0.199379E-03
      0.345000          0.192574E-03
      0.350000          0.185888E-03
      0.355000          0.179345E-03
      0.360000          0.172975E-03
      0.365000          0.166809E-03
      0.370000          0.160876E-03
      0.375000          0.155201E-03
      0.380000          0.149804E-03
      0.385000          0.144695E-03
      0.390000          0.139880E-03
      0.395000          0.135357E-03
      0.400000          0.131117E-03
      0.405000          0.127147E-03
      0.410000          0.123432E-03
      0.415000          0.119955E-03
      0.420000          0.116696E-03
      0.425000          0.113637E-03
      0.430000          0.110761E-03
      0.435000          0.108051E-03
      0.440000          0.105494E-03
      0.445000          0.103076E-03
      0.450000          0.100785E-03
      0.455000          0.986115E-04
      0.460000          0.965460E-04
      0.465000          0.945806E-04
      0.470000          0.927084E-04
      0.475000          0.909235E-04
      0.480000          0.892215E-04
      0.485000          0.875991E-04
      0.490000          0.860548E-04
      0.495000          0.845886E-04
      0.500000          0.832023E-04
