 I_abs(s)[cm^-1]/c[mg/ml]
       0.00000          0.147580E-01
      0.500000E-02      0.146968E-01
      0.100000E-01      0.145149E-01
      0.150000E-01      0.142171E-01
      0.200000E-01      0.138116E-01
      0.250000E-01      0.133087E-01
      0.300000E-01      0.127214E-01
      0.350000E-01      0.120642E-01
      0.400000E-01      0.113524E-01
      0.450000E-01      0.106021E-01
      0.500000E-01      0.982878E-02
      0.550000E-01      0.904753E-02
      0.600000E-01      0.827205E-02
      0.650000E-01      0.751445E-02
      0.700000E-01      0.678504E-02
      0.750000E-01      0.609206E-02
      0.800000E-01      0.544175E-02
      0.850000E-01      0.483836E-02
      0.900000E-01      0.428429E-02
      0.950000E-01      0.378036E-02
      0.100000          0.332602E-02
      0.105000          0.291964E-02
      0.110000          0.255883E-02
      0.115000          0.224064E-02
      0.120000          0.196184E-02
      0.125000          0.171910E-02
      0.130000          0.150911E-02
      0.135000          0.132872E-02
      0.140000          0.117493E-02
      0.145000          0.104498E-02
      0.150000          0.936302E-03
      0.155000          0.846482E-03
      0.160000          0.773258E-03
      0.165000          0.714470E-03
      0.170000          0.668034E-03
      0.175000          0.631934E-03
      0.180000          0.604218E-03
      0.185000          0.583013E-03
      0.190000          0.566552E-03
      0.195000          0.553206E-03
      0.200000          0.541518E-03
      0.205000          0.530242E-03
      0.210000          0.518371E-03
      0.215000          0.505152E-03
      0.220000          0.490099E-03
      0.225000          0.472979E-03
      0.230000          0.453797E-03
      0.235000          0.432761E-03
      0.240000          0.410241E-03
      0.245000          0.386719E-03
      0.250000          0.362744E-03
      0.255000          0.338880E-03
      0.260000          0.315660E-03
      0.265000          0.293554E-03
      0.270000          0.272940E-03
      0.275000          0.254090E-03
      0.280000          0.237157E-03
      0.285000          0.222188E-03
      0.290000          0.209129E-03
      0.295000          0.197849E-03
      0.300000          0.188155E-03
      0.305000          0.179822E-03
      0.310000          0.172614E-03
      0.315000          0.166303E-03
      0.320000          0.160687E-03
      0.325000          0.155601E-03
      0.330000          0.150922E-03
      0.335000          0.146573E-03
      0.340000          0.142515E-03
      0.345000          0.138745E-03
      0.350000          0.135282E-03
      0.355000          0.132158E-03
      0.360000          0.129406E-03
      0.365000          0.127054E-03
      0.370000          0.125113E-03
      0.375000          0.123572E-03
      0.380000          0.122401E-03
      0.385000          0.121545E-03
      0.390000          0.120931E-03
      0.395000          0.120472E-03
      0.400000          0.120076E-03
      0.405000          0.119650E-03
      0.410000          0.119107E-03
      0.415000          0.118378E-03
      0.420000          0.117409E-03
      0.425000          0.116169E-03
      0.430000          0.114653E-03
      0.435000          0.112874E-03
      0.440000          0.110867E-03
      0.445000          0.108684E-03
      0.450000          0.106383E-03
      0.455000          0.104029E-03
      0.460000          0.101686E-03
      0.465000          0.994089E-04
      0.470000          0.972434E-04
      0.475000          0.952207E-04
      0.480000          0.933569E-04
      0.485000          0.916528E-04
      0.490000          0.900957E-04
      0.495000          0.886624E-04
      0.500000          0.873225E-04
