 I_abs(s)[cm^-1]/c[mg/ml]
       0.00000          0.144713E-01
      0.500000E-02      0.144111E-01
      0.100000E-01      0.142322E-01
      0.150000E-01      0.139393E-01
      0.200000E-01      0.135402E-01
      0.250000E-01      0.130453E-01
      0.300000E-01      0.124670E-01
      0.350000E-01      0.118196E-01
      0.400000E-01      0.111184E-01
      0.450000E-01      0.103791E-01
      0.500000E-01      0.961742E-02
      0.550000E-01      0.884831E-02
      0.600000E-01      0.808565E-02
      0.650000E-01      0.734181E-02
      0.700000E-01      0.662727E-02
      0.750000E-01      0.595053E-02
      0.800000E-01      0.531798E-02
      0.850000E-01      0.473392E-02
      0.900000E-01      0.420069E-02
      0.950000E-01      0.371888E-02
      0.100000          0.328750E-02
      0.105000          0.290437E-02
      0.110000          0.256632E-02
      0.115000          0.226959E-02
      0.120000          0.201002E-02
      0.125000          0.178336E-02
      0.130000          0.158545E-02
      0.135000          0.141241E-02
      0.140000          0.126071E-02
      0.145000          0.112730E-02
      0.150000          0.100956E-02
      0.155000          0.905344E-03
      0.160000          0.812923E-03
      0.165000          0.730926E-03
      0.170000          0.658272E-03
      0.175000          0.594102E-03
      0.180000          0.537713E-03
      0.185000          0.488492E-03
      0.190000          0.445875E-03
      0.195000          0.409311E-03
      0.200000          0.378238E-03
      0.205000          0.352080E-03
      0.210000          0.330242E-03
      0.215000          0.312123E-03
      0.220000          0.297129E-03
      0.225000          0.284691E-03
      0.230000          0.274278E-03
      0.235000          0.265416E-03
      0.240000          0.257695E-03
      0.245000          0.250778E-03
      0.250000          0.244402E-03
      0.255000          0.238379E-03
      0.260000          0.232584E-03
      0.265000          0.226954E-03
      0.270000          0.221472E-03
      0.275000          0.216155E-03
      0.280000          0.211046E-03
      0.285000          0.206199E-03
      0.290000          0.201670E-03
      0.295000          0.197510E-03
      0.300000          0.193755E-03
      0.305000          0.190427E-03
      0.310000          0.187528E-03
      0.315000          0.185037E-03
      0.320000          0.182917E-03
      0.325000          0.181111E-03
      0.330000          0.179551E-03
      0.335000          0.178156E-03
      0.340000          0.176839E-03
      0.345000          0.175512E-03
      0.350000          0.174088E-03
      0.355000          0.172486E-03
      0.360000          0.170637E-03
      0.365000          0.168484E-03
      0.370000          0.165985E-03
      0.375000          0.163118E-03
      0.380000          0.159876E-03
      0.385000          0.156275E-03
      0.390000          0.152348E-03
      0.395000          0.148144E-03
      0.400000          0.143728E-03
      0.405000          0.139175E-03
      0.410000          0.134572E-03
      0.415000          0.130006E-03
      0.420000          0.125565E-03
      0.425000          0.121335E-03
      0.430000          0.117390E-03
      0.435000          0.113794E-03
      0.440000          0.110597E-03
      0.445000          0.107828E-03
      0.450000          0.105500E-03
      0.455000          0.103608E-03
      0.460000          0.102128E-03
      0.465000          0.101017E-03
      0.470000          0.100224E-03
      0.475000          0.996832E-04
      0.480000          0.993237E-04
      0.485000          0.990721E-04
      0.490000          0.988562E-04
      0.495000          0.986087E-04
      0.500000          0.982708E-04
