 I_abs(s)[cm^-1]/c[mg/ml]
       0.00000          0.148061E-01
      0.500000E-02      0.147534E-01
      0.100000E-01      0.145964E-01
      0.150000E-01      0.143383E-01
      0.200000E-01      0.139846E-01
      0.250000E-01      0.135423E-01
      0.300000E-01      0.130204E-01
      0.350000E-01      0.124291E-01
      0.400000E-01      0.117797E-01
      0.450000E-01      0.110841E-01
      0.500000E-01      0.103547E-01
      0.550000E-01      0.960383E-02
      0.600000E-01      0.884347E-02
      0.650000E-01      0.808501E-02
      0.700000E-01      0.733894E-02
      0.750000E-01      0.661464E-02
      0.800000E-01      0.592021E-02
      0.850000E-01      0.526237E-02
      0.900000E-01      0.464642E-02
      0.950000E-01      0.407621E-02
      0.100000          0.355419E-02
      0.105000          0.308152E-02
      0.110000          0.265819E-02
      0.115000          0.228312E-02
      0.120000          0.195439E-02
      0.125000          0.166936E-02
      0.130000          0.142487E-02
      0.135000          0.121742E-02
      0.140000          0.104329E-02
      0.145000          0.898683E-03
      0.150000          0.779878E-03
      0.155000          0.683291E-03
      0.160000          0.605563E-03
      0.165000          0.543612E-03
      0.170000          0.494664E-03
      0.175000          0.456271E-03
      0.180000          0.426309E-03
      0.185000          0.402970E-03
      0.190000          0.384737E-03
      0.195000          0.370361E-03
      0.200000          0.358833E-03
      0.205000          0.349347E-03
      0.210000          0.341276E-03
      0.215000          0.334140E-03
      0.220000          0.327580E-03
      0.225000          0.321335E-03
      0.230000          0.315223E-03
      0.235000          0.309124E-03
      0.240000          0.302966E-03
      0.245000          0.296714E-03
      0.250000          0.290360E-03
      0.255000          0.283914E-03
      0.260000          0.277402E-03
      0.265000          0.270856E-03
      0.270000          0.264311E-03
      0.275000          0.257803E-03
      0.280000          0.251366E-03
      0.285000          0.245026E-03
      0.290000          0.238803E-03
      0.295000          0.232710E-03
      0.300000          0.226752E-03
      0.305000          0.220927E-03
      0.310000          0.215226E-03
      0.315000          0.209639E-03
      0.320000          0.204152E-03
      0.325000          0.198751E-03
      0.330000          0.193427E-03
      0.335000          0.188175E-03
      0.340000          0.182995E-03
      0.345000          0.177896E-03
      0.350000          0.172896E-03
      0.355000          0.168019E-03
      0.360000          0.163297E-03
      0.365000          0.158765E-03
      0.370000          0.154465E-03
      0.375000          0.150437E-03
      0.380000          0.146718E-03
      0.385000          0.143342E-03
      0.390000          0.140335E-03
      0.395000          0.137713E-03
      0.400000          0.135479E-03
      0.405000          0.133626E-03
      0.410000          0.132131E-03
      0.415000          0.130960E-03
      0.420000          0.130068E-03
      0.425000          0.129398E-03
      0.430000          0.128888E-03
      0.435000          0.128468E-03
      0.440000          0.128070E-03
      0.445000          0.127626E-03
      0.450000          0.127072E-03
      0.455000          0.126354E-03
      0.460000          0.125426E-03
      0.465000          0.124255E-03
      0.470000          0.122822E-03
      0.475000          0.121121E-03
      0.480000          0.119161E-03
      0.485000          0.116963E-03
      0.490000          0.114562E-03
      0.495000          0.112002E-03
      0.500000          0.109334E-03
