 I_abs(s)[cm^-1]/c[mg/ml]
       0.00000          0.143527E-01
      0.500000E-02      0.142996E-01
      0.100000E-01      0.141414E-01
      0.150000E-01      0.138815E-01
      0.200000E-01      0.135254E-01
      0.250000E-01      0.130804E-01
      0.300000E-01      0.125556E-01
      0.350000E-01      0.119617E-01
      0.400000E-01      0.113101E-01
      0.450000E-01      0.106132E-01
      0.500000E-01      0.988369E-02
      0.550000E-01      0.913426E-02
      0.600000E-01      0.837727E-02
      0.650000E-01      0.762439E-02
      0.700000E-01      0.688639E-02
      0.750000E-01      0.617285E-02
      0.800000E-01      0.549201E-02
      0.850000E-01      0.485066E-02
      0.900000E-01      0.425407E-02
      0.950000E-01      0.370595E-02
      0.100000          0.320855E-02
      0.105000          0.276274E-02
      0.110000          0.236811E-02
      0.115000          0.202314E-02
      0.120000          0.172542E-02
      0.125000          0.147177E-02
      0.130000          0.125851E-02
      0.135000          0.108158E-02
      0.140000          0.936777E-03
      0.145000          0.819853E-03
      0.150000          0.726696E-03
      0.155000          0.653419E-03
      0.160000          0.596443E-03
      0.165000          0.552560E-03
      0.170000          0.518962E-03
      0.175000          0.493252E-03
      0.180000          0.473435E-03
      0.185000          0.457894E-03
      0.190000          0.445357E-03
      0.195000          0.434852E-03
      0.200000          0.425659E-03
      0.205000          0.417267E-03
      0.210000          0.409324E-03
      0.215000          0.401599E-03
      0.220000          0.393945E-03
      0.225000          0.386270E-03
      0.230000          0.378515E-03
      0.235000          0.370636E-03
      0.240000          0.362596E-03
      0.245000          0.354361E-03
      0.250000          0.345894E-03
      0.255000          0.337163E-03
      0.260000          0.328138E-03
      0.265000          0.318799E-03
      0.270000          0.309140E-03
      0.275000          0.299169E-03
      0.280000          0.288913E-03
      0.285000          0.278415E-03
      0.290000          0.267736E-03
      0.295000          0.256953E-03
      0.300000          0.246151E-03
      0.305000          0.235422E-03
      0.310000          0.224861E-03
      0.315000          0.214558E-03
      0.320000          0.204598E-03
      0.325000          0.195054E-03
      0.330000          0.185986E-03
      0.335000          0.177438E-03
      0.340000          0.169440E-03
      0.345000          0.162005E-03
      0.350000          0.155133E-03
      0.355000          0.148814E-03
      0.360000          0.143025E-03
      0.365000          0.137741E-03
      0.370000          0.132929E-03
      0.375000          0.128558E-03
      0.380000          0.124596E-03
      0.385000          0.121017E-03
      0.390000          0.117795E-03
      0.395000          0.114910E-03
      0.400000          0.112347E-03
      0.405000          0.110093E-03
      0.410000          0.108138E-03
      0.415000          0.106472E-03
      0.420000          0.105086E-03
      0.425000          0.103966E-03
      0.430000          0.103099E-03
      0.435000          0.102462E-03
      0.440000          0.102031E-03
      0.445000          0.101776E-03
      0.450000          0.101659E-03
      0.455000          0.101643E-03
      0.460000          0.101683E-03
      0.465000          0.101737E-03
      0.470000          0.101761E-03
      0.475000          0.101716E-03
      0.480000          0.101565E-03
      0.485000          0.101280E-03
      0.490000          0.100840E-03
      0.495000          0.100231E-03
      0.500000          0.994535E-04
