 I_abs(s)[cm^-1]/c[mg/ml]
       0.00000          0.146143E-01
      0.500000E-02      0.145529E-01
      0.100000E-01      0.143702E-01
      0.150000E-01      0.140705E-01
      0.200000E-01      0.136611E-01
      0.250000E-01      0.131516E-01
      0.300000E-01      0.125540E-01
      0.350000E-01      0.118816E-01
      0.400000E-01      0.111494E-01
      0.450000E-01      0.103729E-01
      0.500000E-01      0.956777E-02
      0.550000E-01      0.874955E-02
      0.600000E-01      0.793300E-02
      0.650000E-01      0.713169E-02
      0.700000E-01      0.635774E-02
      0.750000E-01      0.562149E-02
      0.800000E-01      0.493136E-02
      0.850000E-01      0.429373E-02
      0.900000E-01      0.371297E-02
      0.950000E-01      0.319147E-02
      0.100000          0.272979E-02
      0.105000          0.232687E-02
      0.110000          0.198028E-02
      0.115000          0.168644E-02
      0.120000          0.144093E-02
      0.125000          0.123876E-02
      0.130000          0.107465E-02
      0.135000          0.943246E-03
      0.140000          0.839327E-03
      0.145000          0.757993E-03
      0.150000          0.694780E-03
      0.155000          0.645749E-03
      0.160000          0.607535E-03
      0.165000          0.577359E-03
      0.170000          0.553006E-03
      0.175000          0.532786E-03
      0.180000          0.515465E-03
      0.185000          0.500198E-03
      0.190000          0.486446E-03
      0.195000          0.473901E-03
      0.200000          0.462408E-03
      0.205000          0.451904E-03
      0.210000          0.442364E-03
      0.215000          0.433761E-03
      0.220000          0.426036E-03
      0.225000          0.419085E-03
      0.230000          0.412753E-03
      0.235000          0.406843E-03
      0.240000          0.401121E-03
      0.245000          0.395342E-03
      0.250000          0.389257E-03
      0.255000          0.382642E-03
      0.260000          0.375310E-03
      0.265000          0.367121E-03
      0.270000          0.358000E-03
      0.275000          0.347931E-03
      0.280000          0.336966E-03
      0.285000          0.325212E-03
      0.290000          0.312828E-03
      0.295000          0.300011E-03
      0.300000          0.286980E-03
      0.305000          0.273966E-03
      0.310000          0.261194E-03
      0.315000          0.248872E-03
      0.320000          0.237179E-03
      0.325000          0.226257E-03
      0.330000          0.216208E-03
      0.335000          0.207086E-03
      0.340000          0.198904E-03
      0.345000          0.191632E-03
      0.350000          0.185207E-03
      0.355000          0.179538E-03
      0.360000          0.174515E-03
      0.365000          0.170017E-03
      0.370000          0.165922E-03
      0.375000          0.162112E-03
      0.380000          0.158483E-03
      0.385000          0.154946E-03
      0.390000          0.151435E-03
      0.395000          0.147903E-03
      0.400000          0.144326E-03
      0.405000          0.140701E-03
      0.410000          0.137042E-03
      0.415000          0.133374E-03
      0.420000          0.129735E-03
      0.425000          0.126166E-03
      0.430000          0.122708E-03
      0.435000          0.119402E-03
      0.440000          0.116279E-03
      0.445000          0.113364E-03
      0.450000          0.110672E-03
      0.455000          0.108207E-03
      0.460000          0.105965E-03
      0.465000          0.103929E-03
      0.470000          0.102079E-03
      0.475000          0.100388E-03
      0.480000          0.988252E-04
      0.485000          0.973600E-04
      0.490000          0.959629E-04
      0.495000          0.946078E-04
      0.500000          0.932728E-04
