 I_abs(s)[cm^-1]/c[mg/ml]
       0.00000          0.147020E-01
      0.500000E-02      0.146442E-01
      0.100000E-01      0.144724E-01
      0.150000E-01      0.141910E-01
      0.200000E-01      0.138076E-01
      0.250000E-01      0.133318E-01
      0.300000E-01      0.127757E-01
      0.350000E-01      0.121526E-01
      0.400000E-01      0.114767E-01
      0.450000E-01      0.107628E-01
      0.500000E-01      0.100253E-01
      0.550000E-01      0.927794E-02
      0.600000E-01      0.853346E-02
      0.650000E-01      0.780303E-02
      0.700000E-01      0.709617E-02
      0.750000E-01      0.642061E-02
      0.800000E-01      0.578223E-02
      0.850000E-01      0.518520E-02
      0.900000E-01      0.463202E-02
      0.950000E-01      0.412383E-02
      0.100000          0.366053E-02
      0.105000          0.324110E-02
      0.110000          0.286380E-02
      0.115000          0.252637E-02
      0.120000          0.222626E-02
      0.125000          0.196076E-02
      0.130000          0.172712E-02
      0.135000          0.152261E-02
      0.140000          0.134460E-02
      0.145000          0.119055E-02
      0.150000          0.105803E-02
      0.155000          0.944750E-03
      0.160000          0.848480E-03
      0.165000          0.767107E-03
      0.170000          0.698610E-03
      0.175000          0.641071E-03
      0.180000          0.592690E-03
      0.185000          0.551800E-03
      0.190000          0.516892E-03
      0.195000          0.486632E-03
      0.200000          0.459876E-03
      0.205000          0.435684E-03
      0.210000          0.413318E-03
      0.215000          0.392234E-03
      0.220000          0.372068E-03
      0.225000          0.352614E-03
      0.230000          0.333792E-03
      0.235000          0.315617E-03
      0.240000          0.298169E-03
      0.245000          0.281560E-03
      0.250000          0.265907E-03
      0.255000          0.251315E-03
      0.260000          0.237860E-03
      0.265000          0.225579E-03
      0.270000          0.214472E-03
      0.275000          0.204504E-03
      0.280000          0.195610E-03
      0.285000          0.187705E-03
      0.290000          0.180694E-03
      0.295000          0.174480E-03
      0.300000          0.168972E-03
      0.305000          0.164090E-03
      0.310000          0.159766E-03
      0.315000          0.155943E-03
      0.320000          0.152578E-03
      0.325000          0.149630E-03
      0.330000          0.147062E-03
      0.335000          0.144834E-03
      0.340000          0.142903E-03
      0.345000          0.141213E-03
      0.350000          0.139705E-03
      0.355000          0.138310E-03
      0.360000          0.136957E-03
      0.365000          0.135573E-03
      0.370000          0.134090E-03
      0.375000          0.132451E-03
      0.380000          0.130612E-03
      0.385000          0.128546E-03
      0.390000          0.126244E-03
      0.395000          0.123718E-03
      0.400000          0.120999E-03
      0.405000          0.118132E-03
      0.410000          0.115176E-03
      0.415000          0.112195E-03
      0.420000          0.109256E-03
      0.425000          0.106422E-03
      0.430000          0.103747E-03
      0.435000          0.101276E-03
      0.440000          0.990390E-04
      0.445000          0.970501E-04
      0.450000          0.953105E-04
      0.455000          0.938082E-04
      0.460000          0.925213E-04
      0.465000          0.914216E-04
      0.470000          0.904785E-04
      0.475000          0.896620E-04
      0.480000          0.889467E-04
      0.485000          0.883136E-04
      0.490000          0.877516E-04
      0.495000          0.872578E-04
      0.500000          0.868368E-04
