 I_abs(s)[cm^-1]/c[mg/ml]
       0.00000          0.142818E-01
      0.500000E-02      0.142294E-01
      0.100000E-01      0.140736E-01
      0.150000E-01      0.138179E-01
      0.200000E-01      0.134680E-01
      0.250000E-01      0.130318E-01
      0.300000E-01      0.125186E-01
      0.350000E-01      0.119395E-01
      0.400000E-01      0.113064E-01
      0.450000E-01      0.106317E-01
      0.500000E-01      0.992829E-02
      0.550000E-01      0.920876E-02
      0.600000E-01      0.848516E-02
      0.650000E-01      0.776871E-02
      0.700000E-01      0.706948E-02
      0.750000E-01      0.639622E-02
      0.800000E-01      0.575621E-02
      0.850000E-01      0.515516E-02
      0.900000E-01      0.459723E-02
      0.950000E-01      0.408506E-02
      0.100000          0.361987E-02
      0.105000          0.320164E-02
      0.110000          0.282919E-02
      0.115000          0.250050E-02
      0.120000          0.221279E-02
      0.125000          0.196280E-02
      0.130000          0.174696E-02
      0.135000          0.156153E-02
      0.140000          0.140282E-02
      0.145000          0.126724E-02
      0.150000          0.115142E-02
      0.155000          0.105229E-02
      0.160000          0.967123E-03
      0.165000          0.893528E-03
      0.170000          0.829462E-03
      0.175000          0.773215E-03
      0.180000          0.723375E-03
      0.185000          0.678795E-03
      0.190000          0.638555E-03
      0.195000          0.601923E-03
      0.200000          0.568319E-03
      0.205000          0.537283E-03
      0.210000          0.508447E-03
      0.215000          0.481518E-03
      0.220000          0.456256E-03
      0.225000          0.432467E-03
      0.230000          0.409994E-03
      0.235000          0.388711E-03
      0.240000          0.368522E-03
      0.245000          0.349355E-03
      0.250000          0.331162E-03
      0.255000          0.313913E-03
      0.260000          0.297599E-03
      0.265000          0.282217E-03
      0.270000          0.267776E-03
      0.275000          0.254283E-03
      0.280000          0.241745E-03
      0.285000          0.230159E-03
      0.290000          0.219512E-03
      0.295000          0.209776E-03
      0.300000          0.200909E-03
      0.305000          0.192855E-03
      0.310000          0.185545E-03
      0.315000          0.178900E-03
      0.320000          0.172838E-03
      0.325000          0.167272E-03
      0.330000          0.162121E-03
      0.335000          0.157310E-03
      0.340000          0.152776E-03
      0.345000          0.148469E-03
      0.350000          0.144354E-03
      0.355000          0.140414E-03
      0.360000          0.136645E-03
      0.365000          0.133056E-03
      0.370000          0.129667E-03
      0.375000          0.126504E-03
      0.380000          0.123598E-03
      0.385000          0.120975E-03
      0.390000          0.118659E-03
      0.395000          0.116666E-03
      0.400000          0.114999E-03
      0.405000          0.113652E-03
      0.410000          0.112603E-03
      0.415000          0.111820E-03
      0.420000          0.111259E-03
      0.425000          0.110866E-03
      0.430000          0.110584E-03
      0.435000          0.110350E-03
      0.440000          0.110102E-03
      0.445000          0.109785E-03
      0.450000          0.109347E-03
      0.455000          0.108750E-03
      0.460000          0.107964E-03
      0.465000          0.106975E-03
      0.470000          0.105782E-03
      0.475000          0.104396E-03
      0.480000          0.102841E-03
      0.485000          0.101150E-03
      0.490000          0.993666E-04
      0.495000          0.975361E-04
      0.500000          0.957075E-04
