 I_abs(s)[cm^-1]/c[mg/ml]
       0.00000          0.139403E-01
      0.500000E-02      0.138699E-01
      0.100000E-01      0.136609E-01
      0.150000E-01      0.133196E-01
      0.200000E-01      0.128564E-01
      0.250000E-01      0.122850E-01
      0.300000E-01      0.116221E-01
      0.350000E-01      0.108862E-01
      0.400000E-01      0.100973E-01
      0.450000E-01      0.927583E-02
      0.500000E-01      0.844176E-02
      0.550000E-01      0.761392E-02
      0.600000E-01      0.680937E-02
      0.650000E-01      0.604279E-02
      0.700000E-01      0.532618E-02
      0.750000E-01      0.466854E-02
      0.800000E-01      0.407591E-02
      0.850000E-01      0.355134E-02
      0.900000E-01      0.309520E-02
      0.950000E-01      0.270545E-02
      0.100000          0.237806E-02
      0.105000          0.210747E-02
      0.110000          0.188708E-02
      0.115000          0.170967E-02
      0.120000          0.156786E-02
      0.125000          0.145449E-02
      0.130000          0.136291E-02
      0.135000          0.128723E-02
      0.140000          0.122242E-02
      0.145000          0.116446E-02
      0.150000          0.111028E-02
      0.155000          0.105770E-02
      0.160000          0.100541E-02
      0.165000          0.952737E-03
      0.170000          0.899581E-03
      0.175000          0.846225E-03
      0.180000          0.793206E-03
      0.185000          0.741186E-03
      0.190000          0.690848E-03
      0.195000          0.642818E-03
      0.200000          0.597605E-03
      0.205000          0.555574E-03
      0.210000          0.516934E-03
      0.215000          0.481742E-03
      0.220000          0.449926E-03
      0.225000          0.421305E-03
      0.230000          0.395623E-03
      0.235000          0.372578E-03
      0.240000          0.351846E-03
      0.245000          0.333110E-03
      0.250000          0.316070E-03
      0.255000          0.300460E-03
      0.260000          0.286053E-03
      0.265000          0.272662E-03
      0.270000          0.260140E-03
      0.275000          0.248374E-03
      0.280000          0.237285E-03
      0.285000          0.226816E-03
      0.290000          0.216931E-03
      0.295000          0.207611E-03
      0.300000          0.198847E-03
      0.305000          0.190639E-03
      0.310000          0.182995E-03
      0.315000          0.175923E-03
      0.320000          0.169438E-03
      0.325000          0.163552E-03
      0.330000          0.158276E-03
      0.335000          0.153618E-03
      0.340000          0.149578E-03
      0.345000          0.146148E-03
      0.350000          0.143309E-03
      0.355000          0.141031E-03
      0.360000          0.139269E-03
      0.365000          0.137964E-03
      0.370000          0.137045E-03
      0.375000          0.136431E-03
      0.380000          0.136032E-03
      0.385000          0.135752E-03
      0.390000          0.135497E-03
      0.395000          0.135172E-03
      0.400000          0.134695E-03
      0.405000          0.133993E-03
      0.410000          0.133008E-03
      0.415000          0.131702E-03
      0.420000          0.130052E-03
      0.425000          0.128060E-03
      0.430000          0.125743E-03
      0.435000          0.123137E-03
      0.440000          0.120292E-03
      0.445000          0.117268E-03
      0.450000          0.114134E-03
      0.455000          0.110959E-03
      0.460000          0.107813E-03
      0.465000          0.104761E-03
      0.470000          0.101859E-03
      0.475000          0.991523E-04
      0.480000          0.966746E-04
      0.485000          0.944465E-04
      0.490000          0.924763E-04
      0.495000          0.907602E-04
      0.500000          0.892846E-04
