 I_abs(s)[cm^-1]/c[mg/ml]
       0.00000          0.148636E-01
      0.500000E-02      0.148113E-01
      0.100000E-01      0.146557E-01
      0.150000E-01      0.143999E-01
      0.200000E-01      0.140491E-01
      0.250000E-01      0.136103E-01
      0.300000E-01      0.130923E-01
      0.350000E-01      0.125051E-01
      0.400000E-01      0.118598E-01
      0.450000E-01      0.111681E-01
      0.500000E-01      0.104422E-01
      0.550000E-01      0.969439E-02
      0.600000E-01      0.893643E-02
      0.650000E-01      0.817969E-02
      0.700000E-01      0.743463E-02
      0.750000E-01      0.671066E-02
      0.800000E-01      0.601595E-02
      0.850000E-01      0.535733E-02
      0.900000E-01      0.474025E-02
      0.950000E-01      0.416871E-02
      0.100000          0.364535E-02
      0.105000          0.317148E-02
      0.110000          0.274722E-02
      0.115000          0.237164E-02
      0.120000          0.204287E-02
      0.125000          0.175830E-02
      0.130000          0.151476E-02
      0.135000          0.130866E-02
      0.140000          0.113612E-02
      0.145000          0.993205E-03
      0.150000          0.875947E-03
      0.155000          0.780523E-03
      0.160000          0.703317E-03
      0.165000          0.640992E-03
      0.170000          0.590540E-03
      0.175000          0.549311E-03
      0.180000          0.515028E-03
      0.185000          0.485785E-03
      0.190000          0.460038E-03
      0.195000          0.436578E-03
      0.200000          0.414507E-03
      0.205000          0.393200E-03
      0.210000          0.372268E-03
      0.215000          0.351522E-03
      0.220000          0.330929E-03
      0.225000          0.310579E-03
      0.230000          0.290648E-03
      0.235000          0.271364E-03
      0.240000          0.252980E-03
      0.245000          0.235753E-03
      0.250000          0.219915E-03
      0.255000          0.205666E-03
      0.260000          0.193157E-03
      0.265000          0.182487E-03
      0.270000          0.173692E-03
      0.275000          0.166755E-03
      0.280000          0.161600E-03
      0.285000          0.158103E-03
      0.290000          0.156097E-03
      0.295000          0.155381E-03
      0.300000          0.155731E-03
      0.305000          0.156910E-03
      0.310000          0.158676E-03
      0.315000          0.160793E-03
      0.320000          0.163038E-03
      0.325000          0.165211E-03
      0.330000          0.167136E-03
      0.335000          0.168669E-03
      0.340000          0.169697E-03
      0.345000          0.170141E-03
      0.350000          0.169957E-03
      0.355000          0.169130E-03
      0.360000          0.167673E-03
      0.365000          0.165625E-03
      0.370000          0.163044E-03
      0.375000          0.160006E-03
      0.380000          0.156595E-03
      0.385000          0.152904E-03
      0.390000          0.149027E-03
      0.395000          0.145056E-03
      0.400000          0.141078E-03
      0.405000          0.137173E-03
      0.410000          0.133409E-03
      0.415000          0.129843E-03
      0.420000          0.126520E-03
      0.425000          0.123470E-03
      0.430000          0.120710E-03
      0.435000          0.118248E-03
      0.440000          0.116076E-03
      0.445000          0.114179E-03
      0.450000          0.112534E-03
      0.455000          0.111110E-03
      0.460000          0.109872E-03
      0.465000          0.108784E-03
      0.470000          0.107806E-03
      0.475000          0.106903E-03
      0.480000          0.106038E-03
      0.485000          0.105181E-03
      0.490000          0.104305E-03
      0.495000          0.103388E-03
      0.500000          0.102416E-03
