 I_abs(s)[cm^-1]/c[mg/ml]
       0.00000          0.142841E-01
      0.500000E-02      0.142030E-01
      0.100000E-01      0.139625E-01
      0.150000E-01      0.135705E-01
      0.200000E-01      0.130394E-01
      0.250000E-01      0.123863E-01
      0.300000E-01      0.116311E-01
      0.350000E-01      0.107967E-01
      0.400000E-01      0.990688E-02
      0.450000E-01      0.898606E-02
      0.500000E-01      0.805785E-02
      0.550000E-01      0.714425E-02
      0.600000E-01      0.626485E-02
      0.650000E-01      0.543617E-02
      0.700000E-01      0.467131E-02
      0.750000E-01      0.397968E-02
      0.800000E-01      0.336701E-02
      0.850000E-01      0.283553E-02
      0.900000E-01      0.238429E-02
      0.950000E-01      0.200964E-02
      0.100000          0.170574E-02
      0.105000          0.146516E-02
      0.110000          0.127948E-02
      0.115000          0.113981E-02
      0.120000          0.103730E-02
      0.125000          0.963585E-03
      0.130000          0.911050E-03
      0.135000          0.873089E-03
      0.140000          0.844210E-03
      0.145000          0.820081E-03
      0.150000          0.797483E-03
      0.155000          0.774222E-03
      0.160000          0.748987E-03
      0.165000          0.721193E-03
      0.170000          0.690816E-03
      0.175000          0.658230E-03
      0.180000          0.624062E-03
      0.185000          0.589073E-03
      0.190000          0.554053E-03
      0.195000          0.519756E-03
      0.200000          0.486847E-03
      0.205000          0.455874E-03
      0.210000          0.427257E-03
      0.215000          0.401287E-03
      0.220000          0.378135E-03
      0.225000          0.357861E-03
      0.230000          0.340428E-03
      0.235000          0.325718E-03
      0.240000          0.313541E-03
      0.245000          0.303651E-03
      0.250000          0.295754E-03
      0.255000          0.289522E-03
      0.260000          0.284606E-03
      0.265000          0.280646E-03
      0.270000          0.277289E-03
      0.275000          0.274197E-03
      0.280000          0.271065E-03
      0.285000          0.267634E-03
      0.290000          0.263698E-03
      0.295000          0.259112E-03
      0.300000          0.253798E-03
      0.305000          0.247742E-03
      0.310000          0.240992E-03
      0.315000          0.233648E-03
      0.320000          0.225853E-03
      0.325000          0.217779E-03
      0.330000          0.209612E-03
      0.335000          0.201540E-03
      0.340000          0.193741E-03
      0.345000          0.186368E-03
      0.350000          0.179545E-03
      0.355000          0.173361E-03
      0.360000          0.167866E-03
      0.365000          0.163074E-03
      0.370000          0.158966E-03
      0.375000          0.155497E-03
      0.380000          0.152597E-03
      0.385000          0.150186E-03
      0.390000          0.148175E-03
      0.395000          0.146475E-03
      0.400000          0.145001E-03
      0.405000          0.143679E-03
      0.410000          0.142446E-03
      0.415000          0.141249E-03
      0.420000          0.140050E-03
      0.425000          0.138823E-03
      0.430000          0.137551E-03
      0.435000          0.136224E-03
      0.440000          0.134839E-03
      0.445000          0.133398E-03
      0.450000          0.131902E-03
      0.455000          0.130355E-03
      0.460000          0.128761E-03
      0.465000          0.127122E-03
      0.470000          0.125442E-03
      0.475000          0.123722E-03
      0.480000          0.121966E-03
      0.485000          0.120175E-03
      0.490000          0.118353E-03
      0.495000          0.116505E-03
      0.500000          0.114636E-03
