 I_abs(s)[cm^-1]/c[mg/ml]
       0.00000          0.141586E-01
      0.500000E-02      0.140869E-01
      0.100000E-01      0.138740E-01
      0.150000E-01      0.135263E-01
      0.200000E-01      0.130543E-01
      0.250000E-01      0.124717E-01
      0.300000E-01      0.117953E-01
      0.350000E-01      0.110439E-01
      0.400000E-01      0.102373E-01
      0.450000E-01      0.939592E-02
      0.500000E-01      0.853981E-02
      0.550000E-01      0.768772E-02
      0.600000E-01      0.685663E-02
      0.650000E-01      0.606121E-02
      0.700000E-01      0.531345E-02
      0.750000E-01      0.462250E-02
      0.800000E-01      0.399460E-02
      0.850000E-01      0.343320E-02
      0.900000E-01      0.293919E-02
      0.950000E-01      0.251123E-02
      0.100000          0.214611E-02
      0.105000          0.183923E-02
      0.110000          0.158497E-02
      0.115000          0.137715E-02
      0.120000          0.120938E-02
      0.125000          0.107536E-02
      0.130000          0.969168E-03
      0.135000          0.885393E-03
      0.140000          0.819284E-03
      0.145000          0.766785E-03
      0.150000          0.724541E-03
      0.155000          0.689858E-03
      0.160000          0.660637E-03
      0.165000          0.635289E-03
      0.170000          0.612648E-03
      0.175000          0.591884E-03
      0.180000          0.572418E-03
      0.185000          0.553861E-03
      0.190000          0.535953E-03
      0.195000          0.518525E-03
      0.200000          0.501469E-03
      0.205000          0.484717E-03
      0.210000          0.468230E-03
      0.215000          0.451988E-03
      0.220000          0.435988E-03
      0.225000          0.420238E-03
      0.230000          0.404756E-03
      0.235000          0.389564E-03
      0.240000          0.374688E-03
      0.245000          0.360151E-03
      0.250000          0.345972E-03
      0.255000          0.332164E-03
      0.260000          0.318733E-03
      0.265000          0.305681E-03
      0.270000          0.293003E-03
      0.275000          0.280697E-03
      0.280000          0.268759E-03
      0.285000          0.257194E-03
      0.290000          0.246013E-03
      0.295000          0.235236E-03
      0.300000          0.224890E-03
      0.305000          0.215013E-03
      0.310000          0.205644E-03
      0.315000          0.196824E-03
      0.320000          0.188590E-03
      0.325000          0.180973E-03
      0.330000          0.173991E-03
      0.335000          0.167650E-03
      0.340000          0.161938E-03
      0.345000          0.156830E-03
      0.350000          0.152286E-03
      0.355000          0.148256E-03
      0.360000          0.144679E-03
      0.365000          0.141492E-03
      0.370000          0.138632E-03
      0.375000          0.136039E-03
      0.380000          0.133660E-03
      0.385000          0.131451E-03
      0.390000          0.129378E-03
      0.395000          0.127419E-03
      0.400000          0.125559E-03
      0.405000          0.123794E-03
      0.410000          0.122125E-03
      0.415000          0.120557E-03
      0.420000          0.119098E-03
      0.425000          0.117754E-03
      0.430000          0.116528E-03
      0.435000          0.115422E-03
      0.440000          0.114431E-03
      0.445000          0.113549E-03
      0.450000          0.112764E-03
      0.455000          0.112060E-03
      0.460000          0.111421E-03
      0.465000          0.110827E-03
      0.470000          0.110258E-03
      0.475000          0.109696E-03
      0.480000          0.109121E-03
      0.485000          0.108516E-03
      0.490000          0.107862E-03
      0.495000          0.107145E-03
      0.500000          0.106351E-03
