 I_abs(s)[cm^-1]/c[mg/ml]
       0.00000          0.142213E-01
      0.500000E-02      0.141489E-01
      0.100000E-01      0.139339E-01
      0.150000E-01      0.135826E-01
      0.200000E-01      0.131054E-01
      0.250000E-01      0.125159E-01
      0.300000E-01      0.118309E-01
      0.350000E-01      0.110691E-01
      0.400000E-01      0.102507E-01
      0.450000E-01      0.939622E-02
      0.500000E-01      0.852619E-02
      0.550000E-01      0.765998E-02
      0.600000E-01      0.681527E-02
      0.650000E-01      0.600754E-02
      0.700000E-01      0.524961E-02
      0.750000E-01      0.455140E-02
      0.800000E-01      0.391985E-02
      0.850000E-01      0.335892E-02
      0.900000E-01      0.286977E-02
      0.950000E-01      0.245109E-02
      0.100000          0.209942E-02
      0.105000          0.180959E-02
      0.110000          0.157519E-02
      0.115000          0.138902E-02
      0.120000          0.124352E-02
      0.125000          0.113117E-02
      0.130000          0.104480E-02
      0.135000          0.977877E-03
      0.140000          0.924667E-03
      0.145000          0.880365E-03
      0.150000          0.841135E-03
      0.155000          0.804095E-03
      0.160000          0.767256E-03
      0.165000          0.729419E-03
      0.170000          0.690053E-03
      0.175000          0.649160E-03
      0.180000          0.607134E-03
      0.185000          0.564633E-03
      0.190000          0.522458E-03
      0.195000          0.481455E-03
      0.200000          0.442438E-03
      0.205000          0.406124E-03
      0.210000          0.373097E-03
      0.215000          0.343783E-03
      0.220000          0.318445E-03
      0.225000          0.297184E-03
      0.230000          0.279951E-03
      0.235000          0.266566E-03
      0.240000          0.256736E-03
      0.245000          0.250084E-03
      0.250000          0.246166E-03
      0.255000          0.244499E-03
      0.260000          0.244576E-03
      0.265000          0.245895E-03
      0.270000          0.247970E-03
      0.275000          0.250348E-03
      0.280000          0.252628E-03
      0.285000          0.254467E-03
      0.290000          0.255590E-03
      0.295000          0.255797E-03
      0.300000          0.254964E-03
      0.305000          0.253041E-03
      0.310000          0.250045E-03
      0.315000          0.246059E-03
      0.320000          0.241214E-03
      0.325000          0.235679E-03
      0.330000          0.229646E-03
      0.335000          0.223318E-03
      0.340000          0.216890E-03
      0.345000          0.210543E-03
      0.350000          0.204425E-03
      0.355000          0.198653E-03
      0.360000          0.193300E-03
      0.365000          0.188400E-03
      0.370000          0.183944E-03
      0.375000          0.179892E-03
      0.380000          0.176174E-03
      0.385000          0.172702E-03
      0.390000          0.169379E-03
      0.395000          0.166106E-03
      0.400000          0.162794E-03
      0.405000          0.159370E-03
      0.410000          0.155781E-03
      0.415000          0.152000E-03
      0.420000          0.148025E-03
      0.425000          0.143877E-03
      0.430000          0.139601E-03
      0.435000          0.135257E-03
      0.440000          0.130916E-03
      0.445000          0.126655E-03
      0.450000          0.122549E-03
      0.455000          0.118670E-03
      0.460000          0.115075E-03
      0.465000          0.111808E-03
      0.470000          0.108897E-03
      0.475000          0.106352E-03
      0.480000          0.104167E-03
      0.485000          0.102321E-03
      0.490000          0.100782E-03
      0.495000          0.995064E-04
      0.500000          0.984490E-04
