 I_abs(s)[cm^-1]/c[mg/ml]
       0.00000          0.146320E-01
      0.500000E-02      0.145804E-01
      0.100000E-01      0.144266E-01
      0.150000E-01      0.141740E-01
      0.200000E-01      0.138276E-01
      0.250000E-01      0.133946E-01
      0.300000E-01      0.128838E-01
      0.350000E-01      0.123051E-01
      0.400000E-01      0.116696E-01
      0.450000E-01      0.109893E-01
      0.500000E-01      0.102761E-01
      0.550000E-01      0.954231E-02
      0.600000E-01      0.879976E-02
      0.650000E-01      0.805966E-02
      0.700000E-01      0.733234E-02
      0.750000E-01      0.662702E-02
      0.800000E-01      0.595164E-02
      0.850000E-01      0.531277E-02
      0.900000E-01      0.471549E-02
      0.950000E-01      0.416346E-02
      0.100000          0.365890E-02
      0.105000          0.320272E-02
      0.110000          0.279460E-02
      0.115000          0.243322E-02
      0.120000          0.211633E-02
      0.125000          0.184102E-02
      0.130000          0.160387E-02
      0.135000          0.140113E-02
      0.140000          0.122890E-02
      0.145000          0.108326E-02
      0.150000          0.960441E-03
      0.155000          0.856883E-03
      0.160000          0.769341E-03
      0.165000          0.694931E-03
      0.170000          0.631161E-03
      0.175000          0.575935E-03
      0.180000          0.527548E-03
      0.185000          0.484652E-03
      0.190000          0.446224E-03
      0.195000          0.411518E-03
      0.200000          0.380016E-03
      0.205000          0.351379E-03
      0.210000          0.325399E-03
      0.215000          0.301956E-03
      0.220000          0.280979E-03
      0.225000          0.262420E-03
      0.230000          0.246226E-03
      0.235000          0.232325E-03
      0.240000          0.220617E-03
      0.245000          0.210969E-03
      0.250000          0.203217E-03
      0.255000          0.197169E-03
      0.260000          0.192614E-03
      0.265000          0.189328E-03
      0.270000          0.187082E-03
      0.275000          0.185655E-03
      0.280000          0.184833E-03
      0.285000          0.184423E-03
      0.290000          0.184250E-03
      0.295000          0.184167E-03
      0.300000          0.184047E-03
      0.305000          0.183791E-03
      0.310000          0.183321E-03
      0.315000          0.182582E-03
      0.320000          0.181536E-03
      0.325000          0.180163E-03
      0.330000          0.178454E-03
      0.335000          0.176412E-03
      0.340000          0.174049E-03
      0.345000          0.171383E-03
      0.350000          0.168439E-03
      0.355000          0.165245E-03
      0.360000          0.161833E-03
      0.365000          0.158238E-03
      0.370000          0.154497E-03
      0.375000          0.150649E-03
      0.380000          0.146732E-03
      0.385000          0.142787E-03
      0.390000          0.138852E-03
      0.395000          0.134963E-03
      0.400000          0.131155E-03
      0.405000          0.127459E-03
      0.410000          0.123901E-03
      0.415000          0.120501E-03
      0.420000          0.117275E-03
      0.425000          0.114231E-03
      0.430000          0.111372E-03
      0.435000          0.108695E-03
      0.440000          0.106191E-03
      0.445000          0.103845E-03
      0.450000          0.101641E-03
      0.455000          0.995599E-04
      0.460000          0.975796E-04
      0.465000          0.956796E-04
      0.470000          0.938405E-04
      0.475000          0.920455E-04
      0.480000          0.902812E-04
      0.485000          0.885384E-04
      0.490000          0.868128E-04
      0.495000          0.851049E-04
      0.500000          0.834202E-04
