 I_abs(s)[cm^-1]/c[mg/ml]
       0.00000          0.140961E-01
      0.500000E-02      0.140403E-01
      0.100000E-01      0.138746E-01
      0.150000E-01      0.136031E-01
      0.200000E-01      0.132328E-01
      0.250000E-01      0.127731E-01
      0.300000E-01      0.122351E-01
      0.350000E-01      0.116318E-01
      0.400000E-01      0.109768E-01
      0.450000E-01      0.102845E-01
      0.500000E-01      0.956918E-02
      0.550000E-01      0.884448E-02
      0.600000E-01      0.812321E-02
      0.650000E-01      0.741687E-02
      0.700000E-01      0.673536E-02
      0.750000E-01      0.608685E-02
      0.800000E-01      0.547768E-02
      0.850000E-01      0.491235E-02
      0.900000E-01      0.439361E-02
      0.950000E-01      0.392261E-02
      0.100000          0.349906E-02
      0.105000          0.312150E-02
      0.110000          0.278754E-02
      0.115000          0.249406E-02
      0.120000          0.223748E-02
      0.125000          0.201399E-02
      0.130000          0.181967E-02
      0.135000          0.165073E-02
      0.140000          0.150354E-02
      0.145000          0.137477E-02
      0.150000          0.126142E-02
      0.155000          0.116087E-02
      0.160000          0.107085E-02
      0.165000          0.989445E-03
      0.170000          0.915094E-03
      0.175000          0.846528E-03
      0.180000          0.782751E-03
      0.185000          0.723008E-03
      0.190000          0.666744E-03
      0.195000          0.613577E-03
      0.200000          0.563267E-03
      0.205000          0.515687E-03
      0.210000          0.470797E-03
      0.215000          0.428621E-03
      0.220000          0.389226E-03
      0.225000          0.352700E-03
      0.230000          0.319135E-03
      0.235000          0.288609E-03
      0.240000          0.261176E-03
      0.245000          0.236851E-03
      0.250000          0.215607E-03
      0.255000          0.197370E-03
      0.260000          0.182016E-03
      0.265000          0.169379E-03
      0.270000          0.159252E-03
      0.275000          0.151398E-03
      0.280000          0.145558E-03
      0.285000          0.141460E-03
      0.290000          0.138833E-03
      0.295000          0.137410E-03
      0.300000          0.136942E-03
      0.305000          0.137200E-03
      0.310000          0.137981E-03
      0.315000          0.139110E-03
      0.320000          0.140440E-03
      0.325000          0.141851E-03
      0.330000          0.143246E-03
      0.335000          0.144552E-03
      0.340000          0.145709E-03
      0.345000          0.146675E-03
      0.350000          0.147415E-03
      0.355000          0.147903E-03
      0.360000          0.148117E-03
      0.365000          0.148041E-03
      0.370000          0.147661E-03
      0.375000          0.146967E-03
      0.380000          0.145953E-03
      0.385000          0.144617E-03
      0.390000          0.142967E-03
      0.395000          0.141014E-03
      0.400000          0.138778E-03
      0.405000          0.136288E-03
      0.410000          0.133579E-03
      0.415000          0.130694E-03
      0.420000          0.127681E-03
      0.425000          0.124593E-03
      0.430000          0.121484E-03
      0.435000          0.118409E-03
      0.440000          0.115419E-03
      0.445000          0.112561E-03
      0.450000          0.109874E-03
      0.455000          0.107390E-03
      0.460000          0.105129E-03
      0.465000          0.103103E-03
      0.470000          0.101311E-03
      0.475000          0.997413E-04
      0.480000          0.983741E-04
      0.485000          0.971800E-04
      0.490000          0.961236E-04
      0.495000          0.951645E-04
      0.500000          0.942602E-04
