 I_abs(s)[cm^-1]/c[mg/ml]
       0.00000          0.143707E-01
      0.500000E-02      0.143070E-01
      0.100000E-01      0.141178E-01
      0.150000E-01      0.138077E-01
      0.200000E-01      0.133842E-01
      0.250000E-01      0.128578E-01
      0.300000E-01      0.122409E-01
      0.350000E-01      0.115481E-01
      0.400000E-01      0.107951E-01
      0.450000E-01      0.999849E-02
      0.500000E-01      0.917507E-02
      0.550000E-01      0.834140E-02
      0.600000E-01      0.751322E-02
      0.650000E-01      0.670502E-02
      0.700000E-01      0.592968E-02
      0.750000E-01      0.519814E-02
      0.800000E-01      0.451921E-02
      0.850000E-01      0.389944E-02
      0.900000E-01      0.334310E-02
      0.950000E-01      0.285227E-02
      0.100000          0.242695E-02
      0.105000          0.206528E-02
      0.110000          0.176384E-02
      0.115000          0.151789E-02
      0.120000          0.132177E-02
      0.125000          0.116916E-02
      0.130000          0.105343E-02
      0.135000          0.967935E-03
      0.140000          0.906263E-03
      0.145000          0.862455E-03
      0.150000          0.831179E-03
      0.155000          0.807838E-03
      0.160000          0.788643E-03
      0.165000          0.770632E-03
      0.170000          0.751650E-03
      0.175000          0.730288E-03
      0.180000          0.705800E-03
      0.185000          0.677998E-03
      0.190000          0.647138E-03
      0.195000          0.613799E-03
      0.200000          0.578769E-03
      0.205000          0.542940E-03
      0.210000          0.507215E-03
      0.215000          0.472436E-03
      0.220000          0.439327E-03
      0.225000          0.408459E-03
      0.230000          0.380231E-03
      0.235000          0.354867E-03
      0.240000          0.332429E-03
      0.245000          0.312835E-03
      0.250000          0.295893E-03
      0.255000          0.281327E-03
      0.260000          0.268812E-03
      0.265000          0.258006E-03
      0.270000          0.248575E-03
      0.275000          0.240215E-03
      0.280000          0.232668E-03
      0.285000          0.225729E-03
      0.290000          0.219250E-03
      0.295000          0.213138E-03
      0.300000          0.207346E-03
      0.305000          0.201868E-03
      0.310000          0.196722E-03
      0.315000          0.191939E-03
      0.320000          0.187556E-03
      0.325000          0.183599E-03
      0.330000          0.180082E-03
      0.335000          0.176997E-03
      0.340000          0.174316E-03
      0.345000          0.171987E-03
      0.350000          0.169939E-03
      0.355000          0.168088E-03
      0.360000          0.166341E-03
      0.365000          0.164603E-03
      0.370000          0.162784E-03
      0.375000          0.160805E-03
      0.380000          0.158604E-03
      0.385000          0.156138E-03
      0.390000          0.153390E-03
      0.395000          0.150363E-03
      0.400000          0.147085E-03
      0.405000          0.143601E-03
      0.410000          0.139975E-03
      0.415000          0.136281E-03
      0.420000          0.132602E-03
      0.425000          0.129017E-03
      0.430000          0.125606E-03
      0.435000          0.122436E-03
      0.440000          0.119564E-03
      0.445000          0.117030E-03
      0.450000          0.114854E-03
      0.455000          0.113040E-03
      0.460000          0.111573E-03
      0.465000          0.110422E-03
      0.470000          0.109540E-03
      0.475000          0.108871E-03
      0.480000          0.108349E-03
      0.485000          0.107907E-03
      0.490000          0.107476E-03
      0.495000          0.106993E-03
      0.500000          0.106402E-03
