 I_abs(s)[cm^-1]/c[mg/ml]
       0.00000          0.141977E-01
      0.500000E-02      0.141147E-01
      0.100000E-01      0.138689E-01
      0.150000E-01      0.134698E-01
      0.200000E-01      0.129325E-01
      0.250000E-01      0.122769E-01
      0.300000E-01      0.115263E-01
      0.350000E-01      0.107064E-01
      0.400000E-01      0.984332E-02
      0.450000E-01      0.896279E-02
      0.500000E-01      0.808845E-02
      0.550000E-01      0.724105E-02
      0.600000E-01      0.643762E-02
      0.650000E-01      0.569104E-02
      0.700000E-01      0.500995E-02
      0.750000E-01      0.439887E-02
      0.800000E-01      0.385864E-02
      0.850000E-01      0.338703E-02
      0.900000E-01      0.297945E-02
      0.950000E-01      0.262970E-02
      0.100000          0.233072E-02
      0.105000          0.207524E-02
      0.110000          0.185631E-02
      0.115000          0.166770E-02
      0.120000          0.150410E-02
      0.125000          0.136125E-02
      0.130000          0.123586E-02
      0.135000          0.112553E-02
      0.140000          0.102854E-02
      0.145000          0.943651E-03
      0.150000          0.869883E-03
      0.155000          0.806371E-03
      0.160000          0.752226E-03
      0.165000          0.706458E-03
      0.170000          0.667959E-03
      0.175000          0.635516E-03
      0.180000          0.607869E-03
      0.185000          0.583775E-03
      0.190000          0.562083E-03
      0.195000          0.541798E-03
      0.200000          0.522127E-03
      0.205000          0.502502E-03
      0.210000          0.482585E-03
      0.215000          0.462242E-03
      0.220000          0.441514E-03
      0.225000          0.420563E-03
      0.230000          0.399628E-03
      0.235000          0.378977E-03
      0.240000          0.358868E-03
      0.245000          0.339522E-03
      0.250000          0.321107E-03
      0.255000          0.303734E-03
      0.260000          0.287461E-03
      0.265000          0.272305E-03
      0.270000          0.258253E-03
      0.275000          0.245280E-03
      0.280000          0.233356E-03
      0.285000          0.222458E-03
      0.290000          0.212566E-03
      0.295000          0.203669E-03
      0.300000          0.195755E-03
      0.305000          0.188808E-03
      0.310000          0.182796E-03
      0.315000          0.177673E-03
      0.320000          0.173367E-03
      0.325000          0.169787E-03
      0.330000          0.166821E-03
      0.335000          0.164343E-03
      0.340000          0.162222E-03
      0.345000          0.160328E-03
      0.350000          0.158538E-03
      0.355000          0.156751E-03
      0.360000          0.154885E-03
      0.365000          0.152884E-03
      0.370000          0.150718E-03
      0.375000          0.148381E-03
      0.380000          0.145890E-03
      0.385000          0.143274E-03
      0.390000          0.140574E-03
      0.395000          0.137836E-03
      0.400000          0.135105E-03
      0.405000          0.132421E-03
      0.410000          0.129816E-03
      0.415000          0.127316E-03
      0.420000          0.124937E-03
      0.425000          0.122687E-03
      0.430000          0.120570E-03
      0.435000          0.118584E-03
      0.440000          0.116729E-03
      0.445000          0.115002E-03
      0.450000          0.113404E-03
      0.455000          0.111938E-03
      0.460000          0.110608E-03
      0.465000          0.109422E-03
      0.470000          0.108387E-03
      0.475000          0.107510E-03
      0.480000          0.106795E-03
      0.485000          0.106243E-03
      0.490000          0.105849E-03
      0.495000          0.105603E-03
      0.500000          0.105489E-03
