 I_abs(s)[cm^-1]/c[mg/ml]
       0.00000          0.135931E-01
      0.500000E-02      0.134748E-01
      0.100000E-01      0.131274E-01
      0.150000E-01      0.125731E-01
      0.200000E-01      0.118460E-01
      0.250000E-01      0.109896E-01
      0.300000E-01      0.100520E-01
      0.350000E-01      0.908196E-02
      0.400000E-01      0.812483E-02
      0.450000E-01      0.721871E-02
      0.500000E-01      0.639223E-02
      0.550000E-01      0.566315E-02
      0.600000E-01      0.503833E-02
      0.650000E-01      0.451488E-02
      0.700000E-01      0.408212E-02
      0.750000E-01      0.372425E-02
      0.800000E-01      0.342304E-02
      0.850000E-01      0.316056E-02
      0.900000E-01      0.292128E-02
      0.950000E-01      0.269359E-02
      0.100000          0.247045E-02
      0.105000          0.224941E-02
      0.110000          0.203184E-02
      0.115000          0.182184E-02
      0.120000          0.162485E-02
      0.125000          0.144631E-02
      0.130000          0.129053E-02
      0.135000          0.115996E-02
      0.140000          0.105475E-02
      0.145000          0.972935E-03
      0.150000          0.910777E-03
      0.155000          0.863465E-03
      0.160000          0.825859E-03
      0.165000          0.793221E-03
      0.170000          0.761781E-03
      0.175000          0.729092E-03
      0.180000          0.694129E-03
      0.185000          0.657150E-03
      0.190000          0.619381E-03
      0.195000          0.582581E-03
      0.200000          0.548593E-03
      0.205000          0.518938E-03
      0.210000          0.494529E-03
      0.215000          0.475522E-03
      0.220000          0.461329E-03
      0.225000          0.450754E-03
      0.230000          0.442227E-03
      0.235000          0.434076E-03
      0.240000          0.424800E-03
      0.245000          0.413282E-03
      0.250000          0.398929E-03
      0.255000          0.381713E-03
      0.260000          0.362125E-03
      0.265000          0.341049E-03
      0.270000          0.319601E-03
      0.275000          0.298939E-03
      0.280000          0.280095E-03
      0.285000          0.263843E-03
      0.290000          0.250614E-03
      0.295000          0.240477E-03
      0.300000          0.233164E-03
      0.305000          0.228141E-03
      0.310000          0.224710E-03
      0.315000          0.222111E-03
      0.320000          0.219625E-03
      0.325000          0.216656E-03
      0.330000          0.212785E-03
      0.335000          0.207798E-03
      0.340000          0.201678E-03
      0.345000          0.194588E-03
      0.350000          0.186817E-03
      0.355000          0.178737E-03
      0.360000          0.170743E-03
      0.365000          0.163207E-03
      0.370000          0.156433E-03
      0.375000          0.150634E-03
      0.380000          0.145909E-03
      0.385000          0.142250E-03
      0.390000          0.139542E-03
      0.395000          0.137592E-03
      0.400000          0.136152E-03
      0.405000          0.134951E-03
      0.410000          0.133726E-03
      0.415000          0.132255E-03
      0.420000          0.130376E-03
      0.425000          0.128005E-03
      0.430000          0.125139E-03
      0.435000          0.121852E-03
      0.440000          0.118279E-03
      0.445000          0.114596E-03
      0.450000          0.110989E-03
      0.455000          0.107633E-03
      0.460000          0.104663E-03
      0.465000          0.102160E-03
      0.470000          0.100140E-03
      0.475000          0.985594E-04
      0.480000          0.973199E-04
      0.485000          0.962914E-04
      0.490000          0.953326E-04
      0.495000          0.943145E-04
      0.500000          0.931415E-04
