 I_abs(s)[cm^-1]/c[mg/ml]
       0.00000          0.136897E-01
      0.500000E-02      0.136373E-01
      0.100000E-01      0.134813E-01
      0.150000E-01      0.132250E-01
      0.200000E-01      0.128739E-01
      0.250000E-01      0.124354E-01
      0.300000E-01      0.119189E-01
      0.350000E-01      0.113348E-01
      0.400000E-01      0.106949E-01
      0.450000E-01      0.100117E-01
      0.500000E-01      0.929794E-02
      0.550000E-01      0.856652E-02
      0.600000E-01      0.782997E-02
      0.650000E-01      0.710013E-02
      0.700000E-01      0.638792E-02
      0.750000E-01      0.570306E-02
      0.800000E-01      0.505390E-02
      0.850000E-01      0.444726E-02
      0.900000E-01      0.388838E-02
      0.950000E-01      0.338089E-02
      0.100000          0.292686E-02
      0.105000          0.252687E-02
      0.110000          0.218014E-02
      0.115000          0.188469E-02
      0.120000          0.163754E-02
      0.125000          0.143489E-02
      0.130000          0.127235E-02
      0.135000          0.114512E-02
      0.140000          0.104821E-02
      0.145000          0.976614E-03
      0.150000          0.925462E-03
      0.155000          0.890172E-03
      0.160000          0.866539E-03
      0.165000          0.850829E-03
      0.170000          0.839822E-03
      0.175000          0.830839E-03
      0.180000          0.821746E-03
      0.185000          0.810934E-03
      0.190000          0.797282E-03
      0.195000          0.780109E-03
      0.200000          0.759116E-03
      0.205000          0.734324E-03
      0.210000          0.706008E-03
      0.215000          0.674633E-03
      0.220000          0.640796E-03
      0.225000          0.605171E-03
      0.230000          0.568460E-03
      0.235000          0.531355E-03
      0.240000          0.494509E-03
      0.245000          0.458508E-03
      0.250000          0.423858E-03
      0.255000          0.390976E-03
      0.260000          0.360184E-03
      0.265000          0.331715E-03
      0.270000          0.305714E-03
      0.275000          0.282246E-03
      0.280000          0.261312E-03
      0.285000          0.242852E-03
      0.290000          0.226760E-03
      0.295000          0.212893E-03
      0.300000          0.201085E-03
      0.305000          0.191151E-03
      0.310000          0.182897E-03
      0.315000          0.176127E-03
      0.320000          0.170650E-03
      0.325000          0.166279E-03
      0.330000          0.162839E-03
      0.335000          0.160167E-03
      0.340000          0.158113E-03
      0.345000          0.156541E-03
      0.350000          0.155332E-03
      0.355000          0.154378E-03
      0.360000          0.153585E-03
      0.365000          0.152873E-03
      0.370000          0.152175E-03
      0.375000          0.151434E-03
      0.380000          0.150604E-03
      0.385000          0.149648E-03
      0.390000          0.148542E-03
      0.395000          0.147266E-03
      0.400000          0.145811E-03
      0.405000          0.144176E-03
      0.410000          0.142364E-03
      0.415000          0.140387E-03
      0.420000          0.138261E-03
      0.425000          0.136008E-03
      0.430000          0.133651E-03
      0.435000          0.131218E-03
      0.440000          0.128738E-03
      0.445000          0.126242E-03
      0.450000          0.123759E-03
      0.455000          0.121317E-03
      0.460000          0.118943E-03
      0.465000          0.116658E-03
      0.470000          0.114482E-03
      0.475000          0.112428E-03
      0.480000          0.110507E-03
      0.485000          0.108724E-03
      0.490000          0.107078E-03
      0.495000          0.105566E-03
      0.500000          0.104179E-03
