 I_abs(s)[cm^-1]/c[mg/ml]
       0.00000          0.136666E-01
      0.500000E-02      0.136134E-01
      0.100000E-01      0.134550E-01
      0.150000E-01      0.131949E-01
      0.200000E-01      0.128390E-01
      0.250000E-01      0.123949E-01
      0.300000E-01      0.118725E-01
      0.350000E-01      0.112827E-01
      0.400000E-01      0.106377E-01
      0.450000E-01      0.995062E-02
      0.500000E-01      0.923461E-02
      0.550000E-01      0.850298E-02
      0.600000E-01      0.776855E-02
      0.650000E-01      0.704339E-02
      0.700000E-01      0.633850E-02
      0.750000E-01      0.566356E-02
      0.800000E-01      0.502674E-02
      0.850000E-01      0.443457E-02
      0.900000E-01      0.389190E-02
      0.950000E-01      0.340183E-02
      0.100000          0.296587E-02
      0.105000          0.258396E-02
      0.110000          0.225467E-02
      0.115000          0.197538E-02
      0.120000          0.174251E-02
      0.125000          0.155171E-02
      0.130000          0.139814E-02
      0.135000          0.127666E-02
      0.140000          0.118207E-02
      0.145000          0.110927E-02
      0.150000          0.105346E-02
      0.155000          0.101023E-02
      0.160000          0.975679E-03
      0.165000          0.946491E-03
      0.170000          0.919940E-03
      0.175000          0.893908E-03
      0.180000          0.866854E-03
      0.185000          0.837771E-03
      0.190000          0.806124E-03
      0.195000          0.771777E-03
      0.200000          0.734911E-03
      0.205000          0.695948E-03
      0.210000          0.655473E-03
      0.215000          0.614160E-03
      0.220000          0.572714E-03
      0.225000          0.531817E-03
      0.230000          0.492092E-03
      0.235000          0.454071E-03
      0.240000          0.418180E-03
      0.245000          0.384735E-03
      0.250000          0.353939E-03
      0.255000          0.325892E-03
      0.260000          0.300606E-03
      0.265000          0.278017E-03
      0.270000          0.258007E-03
      0.275000          0.240416E-03
      0.280000          0.225061E-03
      0.285000          0.211747E-03
      0.290000          0.200279E-03
      0.295000          0.190465E-03
      0.300000          0.182129E-03
      0.305000          0.175103E-03
      0.310000          0.169235E-03
      0.315000          0.164383E-03
      0.320000          0.160414E-03
      0.325000          0.157201E-03
      0.330000          0.154622E-03
      0.335000          0.152557E-03
      0.340000          0.150889E-03
      0.345000          0.149501E-03
      0.350000          0.148281E-03
      0.355000          0.147122E-03
      0.360000          0.145928E-03
      0.365000          0.144614E-03
      0.370000          0.143108E-03
      0.375000          0.141359E-03
      0.380000          0.139336E-03
      0.385000          0.137030E-03
      0.390000          0.134452E-03
      0.395000          0.131638E-03
      0.400000          0.128638E-03
      0.405000          0.125522E-03
      0.410000          0.122370E-03
      0.415000          0.119267E-03
      0.420000          0.116302E-03
      0.425000          0.113561E-03
      0.430000          0.111119E-03
      0.435000          0.109041E-03
      0.440000          0.107376E-03
      0.445000          0.106152E-03
      0.450000          0.105380E-03
      0.455000          0.105049E-03
      0.460000          0.105129E-03
      0.465000          0.105573E-03
      0.470000          0.106321E-03
      0.475000          0.107300E-03
      0.480000          0.108432E-03
      0.485000          0.109636E-03
      0.490000          0.110831E-03
      0.495000          0.111944E-03
      0.500000          0.112908E-03
