 I_abs(s)[cm^-1]/c[mg/ml]
       0.00000          0.136205E-01
      0.500000E-02      0.135709E-01
      0.100000E-01      0.134234E-01
      0.150000E-01      0.131810E-01
      0.200000E-01      0.128485E-01
      0.250000E-01      0.124327E-01
      0.300000E-01      0.119420E-01
      0.350000E-01      0.113859E-01
      0.400000E-01      0.107751E-01
      0.450000E-01      0.101210E-01
      0.500000E-01      0.943532E-02
      0.550000E-01      0.873002E-02
      0.600000E-01      0.801672E-02
      0.650000E-01      0.730658E-02
      0.700000E-01      0.660993E-02
      0.750000E-01      0.593612E-02
      0.800000E-01      0.529331E-02
      0.850000E-01      0.468830E-02
      0.900000E-01      0.412649E-02
      0.950000E-01      0.361185E-02
      0.100000          0.314687E-02
      0.105000          0.273268E-02
      0.110000          0.236913E-02
      0.115000          0.205489E-02
      0.120000          0.178764E-02
      0.125000          0.156424E-02
      0.130000          0.138089E-02
      0.135000          0.123335E-02
      0.140000          0.111709E-02
      0.145000          0.102748E-02
      0.150000          0.959968E-03
      0.155000          0.910158E-03
      0.160000          0.873970E-03
      0.165000          0.847711E-03
      0.170000          0.828135E-03
      0.175000          0.812481E-03
      0.180000          0.798488E-03
      0.185000          0.784386E-03
      0.190000          0.768871E-03
      0.195000          0.751067E-03
      0.200000          0.730478E-03
      0.205000          0.706925E-03
      0.210000          0.680497E-03
      0.215000          0.651479E-03
      0.220000          0.620305E-03
      0.225000          0.587499E-03
      0.230000          0.553630E-03
      0.235000          0.519275E-03
      0.240000          0.484986E-03
      0.245000          0.451264E-03
      0.250000          0.418550E-03
      0.255000          0.387209E-03
      0.260000          0.357531E-03
      0.265000          0.329731E-03
      0.270000          0.303953E-03
      0.275000          0.280282E-03
      0.280000          0.258746E-03
      0.285000          0.239329E-03
      0.290000          0.221983E-03
      0.295000          0.206630E-03
      0.300000          0.193172E-03
      0.305000          0.181498E-03
      0.310000          0.171486E-03
      0.315000          0.163010E-03
      0.320000          0.155936E-03
      0.325000          0.150129E-03
      0.330000          0.145453E-03
      0.335000          0.141767E-03
      0.340000          0.138934E-03
      0.345000          0.136814E-03
      0.350000          0.135272E-03
      0.355000          0.134175E-03
      0.360000          0.133396E-03
      0.365000          0.132816E-03
      0.370000          0.132326E-03
      0.375000          0.131829E-03
      0.380000          0.131245E-03
      0.385000          0.130508E-03
      0.390000          0.129571E-03
      0.395000          0.128403E-03
      0.400000          0.126994E-03
      0.405000          0.125346E-03
      0.410000          0.123481E-03
      0.415000          0.121431E-03
      0.420000          0.119238E-03
      0.425000          0.116952E-03
      0.430000          0.114627E-03
      0.435000          0.112316E-03
      0.440000          0.110070E-03
      0.445000          0.107935E-03
      0.450000          0.105950E-03
      0.455000          0.104144E-03
      0.460000          0.102537E-03
      0.465000          0.101137E-03
      0.470000          0.999432E-04
      0.475000          0.989465E-04
      0.480000          0.981290E-04
      0.485000          0.974677E-04
      0.490000          0.969358E-04
      0.495000          0.965049E-04
      0.500000          0.961475E-04
