 I_abs(s)[cm^-1]/c[mg/ml]
       0.00000          0.142896E-01
      0.500000E-02      0.142515E-01
      0.100000E-01      0.141375E-01
      0.150000E-01      0.139496E-01
      0.200000E-01      0.136906E-01
      0.250000E-01      0.133645E-01
      0.300000E-01      0.129762E-01
      0.350000E-01      0.125315E-01
      0.400000E-01      0.120369E-01
      0.450000E-01      0.114995E-01
      0.500000E-01      0.109268E-01
      0.550000E-01      0.103264E-01
      0.600000E-01      0.970613E-02
      0.650000E-01      0.907373E-02
      0.700000E-01      0.843665E-02
      0.750000E-01      0.780197E-02
      0.800000E-01      0.717630E-02
      0.850000E-01      0.656562E-02
      0.900000E-01      0.597527E-02
      0.950000E-01      0.540982E-02
      0.100000          0.487306E-02
      0.105000          0.436799E-02
      0.110000          0.389683E-02
      0.115000          0.346101E-02
      0.120000          0.306126E-02
      0.125000          0.269762E-02
      0.130000          0.236953E-02
      0.135000          0.207592E-02
      0.140000          0.181527E-02
      0.145000          0.158570E-02
      0.150000          0.138506E-02
      0.155000          0.121100E-02
      0.160000          0.106109E-02
      0.165000          0.932816E-03
      0.170000          0.823724E-03
      0.175000          0.731418E-03
      0.180000          0.653629E-03
      0.185000          0.588241E-03
      0.190000          0.533321E-03
      0.195000          0.487133E-03
      0.200000          0.448144E-03
      0.205000          0.415027E-03
      0.210000          0.386652E-03
      0.215000          0.362078E-03
      0.220000          0.340535E-03
      0.225000          0.321408E-03
      0.230000          0.304217E-03
      0.235000          0.288598E-03
      0.240000          0.274281E-03
      0.245000          0.261074E-03
      0.250000          0.248843E-03
      0.255000          0.237498E-03
      0.260000          0.226981E-03
      0.265000          0.217251E-03
      0.270000          0.208280E-03
      0.275000          0.200041E-03
      0.280000          0.192509E-03
      0.285000          0.185653E-03
      0.290000          0.179437E-03
      0.295000          0.173820E-03
      0.300000          0.168753E-03
      0.305000          0.164184E-03
      0.310000          0.160058E-03
      0.315000          0.156318E-03
      0.320000          0.152907E-03
      0.325000          0.149770E-03
      0.330000          0.146855E-03
      0.335000          0.144114E-03
      0.340000          0.141503E-03
      0.345000          0.138985E-03
      0.350000          0.136527E-03
      0.355000          0.134104E-03
      0.360000          0.131693E-03
      0.365000          0.129280E-03
      0.370000          0.126853E-03
      0.375000          0.124407E-03
      0.380000          0.121939E-03
      0.385000          0.119450E-03
      0.390000          0.116945E-03
      0.395000          0.114430E-03
      0.400000          0.111914E-03
      0.405000          0.109409E-03
      0.410000          0.106926E-03
      0.415000          0.104480E-03
      0.420000          0.102085E-03
      0.425000          0.997557E-04
      0.430000          0.975086E-04
      0.435000          0.953590E-04
      0.440000          0.933220E-04
      0.445000          0.914125E-04
      0.450000          0.896444E-04
      0.455000          0.880302E-04
      0.460000          0.865809E-04
      0.465000          0.853058E-04
      0.470000          0.842118E-04
      0.475000          0.833038E-04
      0.480000          0.825837E-04
      0.485000          0.820509E-04
      0.490000          0.817020E-04
      0.495000          0.815306E-04
      0.500000          0.815278E-04
