 I_abs(s)[cm^-1]/c[mg/ml]
       0.00000          0.137129E-01
      0.500000E-02      0.136615E-01
      0.100000E-01      0.135083E-01
      0.150000E-01      0.132566E-01
      0.200000E-01      0.129117E-01
      0.250000E-01      0.124808E-01
      0.300000E-01      0.119726E-01
      0.350000E-01      0.113975E-01
      0.400000E-01      0.107668E-01
      0.450000E-01      0.100925E-01
      0.500000E-01      0.938728E-02
      0.550000E-01      0.866367E-02
      0.600000E-01      0.793400E-02
      0.650000E-01      0.721003E-02
      0.700000E-01      0.650265E-02
      0.750000E-01      0.582161E-02
      0.800000E-01      0.517536E-02
      0.850000E-01      0.457090E-02
      0.900000E-01      0.401365E-02
      0.950000E-01      0.350745E-02
      0.100000          0.305455E-02
      0.105000          0.265570E-02
      0.110000          0.231025E-02
      0.115000          0.201628E-02
      0.120000          0.177080E-02
      0.125000          0.156993E-02
      0.130000          0.140912E-02
      0.135000          0.128338E-02
      0.140000          0.118746E-02
      0.145000          0.111607E-02
      0.150000          0.106403E-02
      0.155000          0.102648E-02
      0.160000          0.998965E-03
      0.165000          0.977544E-03
      0.170000          0.958870E-03
      0.175000          0.940221E-03
      0.180000          0.919512E-03
      0.185000          0.895281E-03
      0.190000          0.866648E-03
      0.195000          0.833261E-03
      0.200000          0.795222E-03
      0.205000          0.753008E-03
      0.210000          0.707385E-03
      0.215000          0.659322E-03
      0.220000          0.609906E-03
      0.225000          0.560267E-03
      0.230000          0.511506E-03
      0.235000          0.464640E-03
      0.240000          0.420555E-03
      0.245000          0.379975E-03
      0.250000          0.343437E-03
      0.255000          0.311289E-03
      0.260000          0.283685E-03
      0.265000          0.260601E-03
      0.270000          0.241851E-03
      0.275000          0.227114E-03
      0.280000          0.215962E-03
      0.285000          0.207888E-03
      0.290000          0.202340E-03
      0.295000          0.198747E-03
      0.300000          0.196548E-03
      0.305000          0.195216E-03
      0.310000          0.194275E-03
      0.315000          0.193317E-03
      0.320000          0.192009E-03
      0.325000          0.190101E-03
      0.330000          0.187426E-03
      0.335000          0.183896E-03
      0.340000          0.179496E-03
      0.345000          0.174278E-03
      0.350000          0.168345E-03
      0.355000          0.161843E-03
      0.360000          0.154947E-03
      0.365000          0.147850E-03
      0.370000          0.140748E-03
      0.375000          0.133833E-03
      0.380000          0.127283E-03
      0.385000          0.121252E-03
      0.390000          0.115870E-03
      0.395000          0.111231E-03
      0.400000          0.107401E-03
      0.405000          0.104407E-03
      0.410000          0.102250E-03
      0.415000          0.100897E-03
      0.420000          0.100290E-03
      0.425000          0.100353E-03
      0.430000          0.100989E-03
      0.435000          0.102092E-03
      0.440000          0.103550E-03
      0.445000          0.105249E-03
      0.450000          0.107078E-03
      0.455000          0.108932E-03
      0.460000          0.110719E-03
      0.465000          0.112356E-03
      0.470000          0.113776E-03
      0.475000          0.114928E-03
      0.480000          0.115774E-03
      0.485000          0.116295E-03
      0.490000          0.116482E-03
      0.495000          0.116344E-03
      0.500000          0.115896E-03
