 I_abs(s)[cm^-1]/c[mg/ml]
       0.00000          0.137437E-01
      0.500000E-02      0.136893E-01
      0.100000E-01      0.135271E-01
      0.150000E-01      0.132611E-01
      0.200000E-01      0.128971E-01
      0.250000E-01      0.124436E-01
      0.300000E-01      0.119105E-01
      0.350000E-01      0.113095E-01
      0.400000E-01      0.106533E-01
      0.450000E-01      0.995540E-02
      0.500000E-01      0.922951E-02
      0.550000E-01      0.848931E-02
      0.600000E-01      0.774792E-02
      0.650000E-01      0.701762E-02
      0.700000E-01      0.630950E-02
      0.750000E-01      0.563319E-02
      0.800000E-01      0.499674E-02
      0.850000E-01      0.440645E-02
      0.900000E-01      0.386686E-02
      0.950000E-01      0.338073E-02
      0.100000          0.294915E-02
      0.105000          0.257168E-02
      0.110000          0.224653E-02
      0.115000          0.197073E-02
      0.120000          0.174042E-02
      0.125000          0.155106E-02
      0.130000          0.139768E-02
      0.135000          0.127510E-02
      0.140000          0.117816E-02
      0.145000          0.110189E-02
      0.150000          0.104164E-02
      0.155000          0.993249E-03
      0.160000          0.953071E-03
      0.165000          0.918058E-03
      0.170000          0.885759E-03
      0.175000          0.854314E-03
      0.180000          0.822413E-03
      0.185000          0.789240E-03
      0.190000          0.754407E-03
      0.195000          0.717877E-03
      0.200000          0.679883E-03
      0.205000          0.640852E-03
      0.210000          0.601332E-03
      0.215000          0.561927E-03
      0.220000          0.523243E-03
      0.225000          0.485847E-03
      0.230000          0.450231E-03
      0.235000          0.416794E-03
      0.240000          0.385827E-03
      0.245000          0.357518E-03
      0.250000          0.331950E-03
      0.255000          0.309112E-03
      0.260000          0.288918E-03
      0.265000          0.271217E-03
      0.270000          0.255811E-03
      0.275000          0.242475E-03
      0.280000          0.230966E-03
      0.285000          0.221040E-03
      0.290000          0.212460E-03
      0.295000          0.205006E-03
      0.300000          0.198477E-03
      0.305000          0.192699E-03
      0.310000          0.187522E-03
      0.315000          0.182824E-03
      0.320000          0.178506E-03
      0.325000          0.174492E-03
      0.330000          0.170725E-03
      0.335000          0.167168E-03
      0.340000          0.163794E-03
      0.345000          0.160592E-03
      0.350000          0.157557E-03
      0.355000          0.154691E-03
      0.360000          0.152001E-03
      0.365000          0.149496E-03
      0.370000          0.147186E-03
      0.375000          0.145079E-03
      0.380000          0.143184E-03
      0.385000          0.141503E-03
      0.390000          0.140037E-03
      0.395000          0.138781E-03
      0.400000          0.137726E-03
      0.405000          0.136857E-03
      0.410000          0.136155E-03
      0.415000          0.135595E-03
      0.420000          0.135150E-03
      0.425000          0.134789E-03
      0.430000          0.134478E-03
      0.435000          0.134185E-03
      0.440000          0.133877E-03
      0.445000          0.133523E-03
      0.450000          0.133096E-03
      0.455000          0.132572E-03
      0.460000          0.131935E-03
      0.465000          0.131171E-03
      0.470000          0.130274E-03
      0.475000          0.129246E-03
      0.480000          0.128093E-03
      0.485000          0.126826E-03
      0.490000          0.125462E-03
      0.495000          0.124021E-03
      0.500000          0.122527E-03
