 I_abs(s)[cm^-1]/c[mg/ml]
       0.00000          0.135820E-01
      0.500000E-02      0.135225E-01
      0.100000E-01      0.133454E-01
      0.150000E-01      0.130554E-01
      0.200000E-01      0.126599E-01
      0.250000E-01      0.121689E-01
      0.300000E-01      0.115947E-01
      0.350000E-01      0.109510E-01
      0.400000E-01      0.102532E-01
      0.450000E-01      0.951696E-02
      0.500000E-01      0.875819E-02
      0.550000E-01      0.799239E-02
      0.600000E-01      0.723414E-02
      0.650000E-01      0.649667E-02
      0.700000E-01      0.579155E-02
      0.750000E-01      0.512838E-02
      0.800000E-01      0.451467E-02
      0.850000E-01      0.395576E-02
      0.900000E-01      0.345482E-02
      0.950000E-01      0.301302E-02
      0.100000          0.262963E-02
      0.105000          0.230233E-02
      0.110000          0.202747E-02
      0.115000          0.180036E-02
      0.120000          0.161560E-02
      0.125000          0.146739E-02
      0.130000          0.134982E-02
      0.135000          0.125708E-02
      0.140000          0.118374E-02
      0.145000          0.112485E-02
      0.150000          0.107611E-02
      0.155000          0.103390E-02
      0.160000          0.995326E-03
      0.165000          0.958206E-03
      0.170000          0.921017E-03
      0.175000          0.882827E-03
      0.180000          0.843206E-03
      0.185000          0.802128E-03
      0.190000          0.759872E-03
      0.195000          0.716919E-03
      0.200000          0.673872E-03
      0.205000          0.631373E-03
      0.210000          0.590042E-03
      0.215000          0.550434E-03
      0.220000          0.513001E-03
      0.225000          0.478080E-03
      0.230000          0.445884E-03
      0.235000          0.416510E-03
      0.240000          0.389946E-03
      0.245000          0.366097E-03
      0.250000          0.344798E-03
      0.255000          0.325838E-03
      0.260000          0.308982E-03
      0.265000          0.293984E-03
      0.270000          0.280604E-03
      0.275000          0.268622E-03
      0.280000          0.257841E-03
      0.285000          0.248090E-03
      0.290000          0.239229E-03
      0.295000          0.231147E-03
      0.300000          0.223754E-03
      0.305000          0.216980E-03
      0.310000          0.210770E-03
      0.315000          0.205080E-03
      0.320000          0.199869E-03
      0.325000          0.195099E-03
      0.330000          0.190730E-03
      0.335000          0.186723E-03
      0.340000          0.183032E-03
      0.345000          0.179611E-03
      0.350000          0.176413E-03
      0.355000          0.173392E-03
      0.360000          0.170504E-03
      0.365000          0.167710E-03
      0.370000          0.164978E-03
      0.375000          0.162284E-03
      0.380000          0.159613E-03
      0.385000          0.156961E-03
      0.390000          0.154331E-03
      0.395000          0.151737E-03
      0.400000          0.149200E-03
      0.405000          0.146747E-03
      0.410000          0.144407E-03
      0.415000          0.142212E-03
      0.420000          0.140193E-03
      0.425000          0.138375E-03
      0.430000          0.136779E-03
      0.435000          0.135420E-03
      0.440000          0.134302E-03
      0.445000          0.133420E-03
      0.450000          0.132760E-03
      0.455000          0.132300E-03
      0.460000          0.132006E-03
      0.465000          0.131840E-03
      0.470000          0.131757E-03
      0.475000          0.131709E-03
      0.480000          0.131646E-03
      0.485000          0.131518E-03
      0.490000          0.131280E-03
      0.495000          0.130889E-03
      0.500000          0.130310E-03
