 I_abs(s)[cm^-1]/c[mg/ml]
       0.00000          0.136974E-01
      0.500000E-02      0.136420E-01
      0.100000E-01      0.134770E-01
      0.150000E-01      0.132064E-01
      0.200000E-01      0.128365E-01
      0.250000E-01      0.123760E-01
      0.300000E-01      0.118353E-01
      0.350000E-01      0.112264E-01
      0.400000E-01      0.105627E-01
      0.450000E-01      0.985800E-02
      0.500000E-01      0.912646E-02
      0.550000E-01      0.838205E-02
      0.600000E-01      0.763815E-02
      0.650000E-01      0.690716E-02
      0.700000E-01      0.620020E-02
      0.750000E-01      0.552684E-02
      0.800000E-01      0.489496E-02
      0.850000E-01      0.431064E-02
      0.900000E-01      0.377811E-02
      0.950000E-01      0.329982E-02
      0.100000          0.287652E-02
      0.105000          0.250745E-02
      0.110000          0.219051E-02
      0.115000          0.192251E-02
      0.120000          0.169939E-02
      0.125000          0.151650E-02
      0.130000          0.136881E-02
      0.135000          0.125117E-02
      0.140000          0.115848E-02
      0.145000          0.108589E-02
      0.150000          0.102890E-02
      0.155000          0.983503E-03
      0.160000          0.946226E-03
      0.165000          0.914167E-03
      0.170000          0.885000E-03
      0.175000          0.856950E-03
      0.180000          0.828753E-03
      0.185000          0.799594E-03
      0.190000          0.769043E-03
      0.195000          0.736979E-03
      0.200000          0.703521E-03
      0.205000          0.668958E-03
      0.210000          0.633683E-03
      0.215000          0.598144E-03
      0.220000          0.562798E-03
      0.225000          0.528076E-03
      0.230000          0.494358E-03
      0.235000          0.461963E-03
      0.240000          0.431134E-03
      0.245000          0.402045E-03
      0.250000          0.374804E-03
      0.255000          0.349457E-03
      0.260000          0.326005E-03
      0.265000          0.304411E-03
      0.270000          0.284612E-03
      0.275000          0.266531E-03
      0.280000          0.250085E-03
      0.285000          0.235190E-03
      0.290000          0.221766E-03
      0.295000          0.209742E-03
      0.300000          0.199054E-03
      0.305000          0.189645E-03
      0.310000          0.181464E-03
      0.315000          0.174461E-03
      0.320000          0.168584E-03
      0.325000          0.163778E-03
      0.330000          0.159980E-03
      0.335000          0.157116E-03
      0.340000          0.155102E-03
      0.345000          0.153841E-03
      0.350000          0.153225E-03
      0.355000          0.153136E-03
      0.360000          0.153449E-03
      0.365000          0.154033E-03
      0.370000          0.154759E-03
      0.375000          0.155501E-03
      0.380000          0.156140E-03
      0.385000          0.156573E-03
      0.390000          0.156711E-03
      0.395000          0.156483E-03
      0.400000          0.155845E-03
      0.405000          0.154772E-03
      0.410000          0.153264E-03
      0.415000          0.151345E-03
      0.420000          0.149059E-03
      0.425000          0.146468E-03
      0.430000          0.143648E-03
      0.435000          0.140688E-03
      0.440000          0.137679E-03
      0.445000          0.134714E-03
      0.450000          0.131883E-03
      0.455000          0.129267E-03
      0.460000          0.126934E-03
      0.465000          0.124938E-03
      0.470000          0.123315E-03
      0.475000          0.122083E-03
      0.480000          0.121241E-03
      0.485000          0.120770E-03
      0.490000          0.120635E-03
      0.495000          0.120787E-03
      0.500000          0.121165E-03
