 I_abs(s)[cm^-1]/c[mg/ml]
       0.00000          0.136743E-01
      0.500000E-02      0.136177E-01
      0.100000E-01      0.134491E-01
      0.150000E-01      0.131727E-01
      0.200000E-01      0.127949E-01
      0.250000E-01      0.123246E-01
      0.300000E-01      0.117727E-01
      0.350000E-01      0.111515E-01
      0.400000E-01      0.104747E-01
      0.450000E-01      0.975676E-02
      0.500000E-01      0.901223E-02
      0.550000E-01      0.825564E-02
      0.600000E-01      0.750086E-02
      0.650000E-01      0.676076E-02
      0.700000E-01      0.604692E-02
      0.750000E-01      0.536930E-02
      0.800000E-01      0.473609E-02
      0.850000E-01      0.415358E-02
      0.900000E-01      0.362612E-02
      0.950000E-01      0.315618E-02
      0.100000          0.274439E-02
      0.105000          0.238976E-02
      0.110000          0.208987E-02
      0.115000          0.184108E-02
      0.120000          0.163884E-02
      0.125000          0.147790E-02
      0.130000          0.135263E-02
      0.135000          0.125725E-02
      0.140000          0.118604E-02
      0.145000          0.113356E-02
      0.150000          0.109480E-02
      0.155000          0.106530E-02
      0.160000          0.104123E-02
      0.165000          0.101944E-02
      0.170000          0.997460E-03
      0.175000          0.973500E-03
      0.180000          0.946370E-03
      0.185000          0.915434E-03
      0.190000          0.880526E-03
      0.195000          0.841860E-03
      0.200000          0.799942E-03
      0.205000          0.755480E-03
      0.210000          0.709306E-03
      0.215000          0.662302E-03
      0.220000          0.615339E-03
      0.225000          0.569234E-03
      0.230000          0.524707E-03
      0.235000          0.482363E-03
      0.240000          0.442679E-03
      0.245000          0.405998E-03
      0.250000          0.372535E-03
      0.255000          0.342388E-03
      0.260000          0.315554E-03
      0.265000          0.291941E-03
      0.270000          0.271387E-03
      0.275000          0.253682E-03
      0.280000          0.238576E-03
      0.285000          0.225800E-03
      0.290000          0.215075E-03
      0.295000          0.206122E-03
      0.300000          0.198669E-03
      0.305000          0.192461E-03
      0.310000          0.187257E-03
      0.315000          0.182841E-03
      0.320000          0.179014E-03
      0.325000          0.175605E-03
      0.330000          0.172464E-03
      0.335000          0.169466E-03
      0.340000          0.166507E-03
      0.345000          0.163507E-03
      0.350000          0.160409E-03
      0.355000          0.157175E-03
      0.360000          0.153786E-03
      0.365000          0.150244E-03
      0.370000          0.146564E-03
      0.375000          0.142776E-03
      0.380000          0.138923E-03
      0.385000          0.135053E-03
      0.390000          0.131223E-03
      0.395000          0.127492E-03
      0.400000          0.123918E-03
      0.405000          0.120558E-03
      0.410000          0.117462E-03
      0.415000          0.114674E-03
      0.420000          0.112227E-03
      0.425000          0.110147E-03
      0.430000          0.108445E-03
      0.435000          0.107124E-03
      0.440000          0.106174E-03
      0.445000          0.105575E-03
      0.450000          0.105301E-03
      0.455000          0.105313E-03
      0.460000          0.105570E-03
      0.465000          0.106026E-03
      0.470000          0.106631E-03
      0.475000          0.107335E-03
      0.480000          0.108089E-03
      0.485000          0.108847E-03
      0.490000          0.109565E-03
      0.495000          0.110205E-03
      0.500000          0.110735E-03
