 I_abs(s)[cm^-1]/c[mg/ml]
       0.00000          0.134748E-01
      0.500000E-02      0.134195E-01
      0.100000E-01      0.132551E-01
      0.150000E-01      0.129854E-01
      0.200000E-01      0.126171E-01
      0.250000E-01      0.121588E-01
      0.300000E-01      0.116213E-01
      0.350000E-01      0.110167E-01
      0.400000E-01      0.103585E-01
      0.450000E-01      0.966062E-02
      0.500000E-01      0.893723E-02
      0.550000E-01      0.820223E-02
      0.600000E-01      0.746885E-02
      0.650000E-01      0.674927E-02
      0.700000E-01      0.605428E-02
      0.750000E-01      0.539312E-02
      0.800000E-01      0.477326E-02
      0.850000E-01      0.420038E-02
      0.900000E-01      0.367833E-02
      0.950000E-01      0.320922E-02
      0.100000          0.279353E-02
      0.105000          0.243033E-02
      0.110000          0.211746E-02
      0.115000          0.185176E-02
      0.120000          0.162933E-02
      0.125000          0.144579E-02
      0.130000          0.129647E-02
      0.135000          0.117661E-02
      0.140000          0.108158E-02
      0.145000          0.100698E-02
      0.150000          0.948772E-03
      0.155000          0.903333E-03
      0.160000          0.867509E-03
      0.165000          0.838624E-03
      0.170000          0.814471E-03
      0.175000          0.793279E-03
      0.180000          0.773676E-03
      0.185000          0.754638E-03
      0.190000          0.735434E-03
      0.195000          0.715577E-03
      0.200000          0.694770E-03
      0.205000          0.672870E-03
      0.210000          0.649844E-03
      0.215000          0.625742E-03
      0.220000          0.600676E-03
      0.225000          0.574797E-03
      0.230000          0.548286E-03
      0.235000          0.521346E-03
      0.240000          0.494190E-03
      0.245000          0.467042E-03
      0.250000          0.440126E-03
      0.255000          0.413666E-03
      0.260000          0.387878E-03
      0.265000          0.362966E-03
      0.270000          0.339118E-03
      0.275000          0.316495E-03
      0.280000          0.295234E-03
      0.285000          0.275439E-03
      0.290000          0.257180E-03
      0.295000          0.240493E-03
      0.300000          0.225379E-03
      0.305000          0.211807E-03
      0.310000          0.199718E-03
      0.315000          0.189031E-03
      0.320000          0.179646E-03
      0.325000          0.171451E-03
      0.330000          0.164330E-03
      0.335000          0.158165E-03
      0.340000          0.152845E-03
      0.345000          0.148265E-03
      0.350000          0.144333E-03
      0.355000          0.140969E-03
      0.360000          0.138107E-03
      0.365000          0.135692E-03
      0.370000          0.133681E-03
      0.375000          0.132041E-03
      0.380000          0.130744E-03
      0.385000          0.129766E-03
      0.390000          0.129087E-03
      0.395000          0.128685E-03
      0.400000          0.128536E-03
      0.405000          0.128614E-03
      0.410000          0.128891E-03
      0.415000          0.129332E-03
      0.420000          0.129903E-03
      0.425000          0.130565E-03
      0.430000          0.131279E-03
      0.435000          0.132006E-03
      0.440000          0.132708E-03
      0.445000          0.133349E-03
      0.450000          0.133898E-03
      0.455000          0.134325E-03
      0.460000          0.134608E-03
      0.465000          0.134726E-03
      0.470000          0.134667E-03
      0.475000          0.134419E-03
      0.480000          0.133978E-03
      0.485000          0.133344E-03
      0.490000          0.132517E-03
      0.495000          0.131503E-03
      0.500000          0.130310E-03
