 I_abs(s)[cm^-1]/c[mg/ml]
       0.00000          0.139842E-01
      0.500000E-02      0.139228E-01
      0.100000E-01      0.137403E-01
      0.150000E-01      0.134413E-01
      0.200000E-01      0.130333E-01
      0.250000E-01      0.125266E-01
      0.300000E-01      0.119337E-01
      0.350000E-01      0.112686E-01
      0.400000E-01      0.105469E-01
      0.450000E-01      0.978478E-02
      0.500000E-01      0.899845E-02
      0.550000E-01      0.820385E-02
      0.600000E-01      0.741599E-02
      0.650000E-01      0.664855E-02
      0.700000E-01      0.591352E-02
      0.750000E-01      0.522093E-02
      0.800000E-01      0.457866E-02
      0.850000E-01      0.399239E-02
      0.900000E-01      0.346559E-02
      0.950000E-01      0.299964E-02
      0.100000          0.259400E-02
      0.105000          0.224647E-02
      0.110000          0.195345E-02
      0.115000          0.171026E-02
      0.120000          0.151147E-02
      0.125000          0.135123E-02
      0.130000          0.122352E-02
      0.135000          0.112245E-02
      0.140000          0.104249E-02
      0.145000          0.978605E-03
      0.150000          0.926404E-03
      0.155000          0.882210E-03
      0.160000          0.843078E-03
      0.165000          0.806785E-03
      0.170000          0.771776E-03
      0.175000          0.737089E-03
      0.180000          0.702256E-03
      0.185000          0.667201E-03
      0.190000          0.632129E-03
      0.195000          0.597431E-03
      0.200000          0.563587E-03
      0.205000          0.531092E-03
      0.210000          0.500394E-03
      0.215000          0.471858E-03
      0.220000          0.445734E-03
      0.225000          0.422155E-03
      0.230000          0.401135E-03
      0.235000          0.382590E-03
      0.240000          0.366354E-03
      0.245000          0.352205E-03
      0.250000          0.339893E-03
      0.255000          0.329160E-03
      0.260000          0.319762E-03
      0.265000          0.311481E-03
      0.270000          0.304138E-03
      0.275000          0.297590E-03
      0.280000          0.291735E-03
      0.285000          0.286499E-03
      0.290000          0.281834E-03
      0.295000          0.277703E-03
      0.300000          0.274070E-03
      0.305000          0.270895E-03
      0.310000          0.268119E-03
      0.315000          0.265669E-03
      0.320000          0.263446E-03
      0.325000          0.261337E-03
      0.330000          0.259210E-03
      0.335000          0.256927E-03
      0.340000          0.254350E-03
      0.345000          0.251349E-03
      0.350000          0.247811E-03
      0.355000          0.243650E-03
      0.360000          0.238813E-03
      0.365000          0.233281E-03
      0.370000          0.227074E-03
      0.375000          0.220252E-03
      0.380000          0.212909E-03
      0.385000          0.205167E-03
      0.390000          0.197174E-03
      0.395000          0.189092E-03
      0.400000          0.181087E-03
      0.405000          0.173325E-03
      0.410000          0.165959E-03
      0.415000          0.159122E-03
      0.420000          0.152925E-03
      0.425000          0.147447E-03
      0.430000          0.142735E-03
      0.435000          0.138806E-03
      0.440000          0.135641E-03
      0.445000          0.133196E-03
      0.450000          0.131401E-03
      0.455000          0.130165E-03
      0.460000          0.129386E-03
      0.465000          0.128950E-03
      0.470000          0.128745E-03
      0.475000          0.128659E-03
      0.480000          0.128591E-03
      0.485000          0.128450E-03
      0.490000          0.128162E-03
      0.495000          0.127670E-03
      0.500000          0.126933E-03
