 I_abs(s)[cm^-1]/c[mg/ml]
       0.00000          0.138056E-01
      0.500000E-02      0.137556E-01
      0.100000E-01      0.136066E-01
      0.150000E-01      0.133617E-01
      0.200000E-01      0.130262E-01
      0.250000E-01      0.126069E-01
      0.300000E-01      0.121124E-01
      0.350000E-01      0.115527E-01
      0.400000E-01      0.109386E-01
      0.450000E-01      0.102817E-01
      0.500000E-01      0.959401E-02
      0.550000E-01      0.888741E-02
      0.600000E-01      0.817355E-02
      0.650000E-01      0.746347E-02
      0.700000E-01      0.676730E-02
      0.750000E-01      0.609410E-02
      0.800000E-01      0.545168E-02
      0.850000E-01      0.484647E-02
      0.900000E-01      0.428347E-02
      0.950000E-01      0.376625E-02
      0.100000          0.329698E-02
      0.105000          0.287651E-02
      0.110000          0.250449E-02
      0.115000          0.217954E-02
      0.120000          0.189936E-02
      0.125000          0.166097E-02
      0.130000          0.146085E-02
      0.135000          0.129512E-02
      0.140000          0.115973E-02
      0.145000          0.105055E-02
      0.150000          0.963587E-03
      0.155000          0.895012E-03
      0.160000          0.841289E-03
      0.165000          0.799223E-03
      0.170000          0.765994E-03
      0.175000          0.739186E-03
      0.180000          0.716774E-03
      0.185000          0.697123E-03
      0.190000          0.678948E-03
      0.195000          0.661292E-03
      0.200000          0.643476E-03
      0.205000          0.625062E-03
      0.210000          0.605806E-03
      0.215000          0.585621E-03
      0.220000          0.564537E-03
      0.225000          0.542666E-03
      0.230000          0.520175E-03
      0.235000          0.497265E-03
      0.240000          0.474145E-03
      0.245000          0.451024E-03
      0.250000          0.428101E-03
      0.255000          0.405553E-03
      0.260000          0.383540E-03
      0.265000          0.362195E-03
      0.270000          0.341630E-03
      0.275000          0.321933E-03
      0.280000          0.303174E-03
      0.285000          0.285404E-03
      0.290000          0.268659E-03
      0.295000          0.252960E-03
      0.300000          0.238317E-03
      0.305000          0.224728E-03
      0.310000          0.212183E-03
      0.315000          0.200664E-03
      0.320000          0.190145E-03
      0.325000          0.180593E-03
      0.330000          0.171972E-03
      0.335000          0.164239E-03
      0.340000          0.157347E-03
      0.345000          0.151246E-03
      0.350000          0.145884E-03
      0.355000          0.141206E-03
      0.360000          0.137157E-03
      0.365000          0.133682E-03
      0.370000          0.130724E-03
      0.375000          0.128230E-03
      0.380000          0.126148E-03
      0.385000          0.124426E-03
      0.390000          0.123017E-03
      0.395000          0.121875E-03
      0.400000          0.120959E-03
      0.405000          0.120228E-03
      0.410000          0.119649E-03
      0.415000          0.119187E-03
      0.420000          0.118813E-03
      0.425000          0.118502E-03
      0.430000          0.118229E-03
      0.435000          0.117974E-03
      0.440000          0.117720E-03
      0.445000          0.117451E-03
      0.450000          0.117155E-03
      0.455000          0.116821E-03
      0.460000          0.116440E-03
      0.465000          0.116008E-03
      0.470000          0.115520E-03
      0.475000          0.114973E-03
      0.480000          0.114368E-03
      0.485000          0.113703E-03
      0.490000          0.112983E-03
      0.495000          0.112209E-03
      0.500000          0.111384E-03
