 I_abs(s)[cm^-1]/c[mg/ml]
       0.00000          0.136820E-01
      0.500000E-02      0.136299E-01
      0.100000E-01      0.134747E-01
      0.150000E-01      0.132196E-01
      0.200000E-01      0.128701E-01
      0.250000E-01      0.124333E-01
      0.300000E-01      0.119182E-01
      0.350000E-01      0.113353E-01
      0.400000E-01      0.106959E-01
      0.450000E-01      0.100123E-01
      0.500000E-01      0.929729E-02
      0.550000E-01      0.856354E-02
      0.600000E-01      0.782357E-02
      0.650000E-01      0.708930E-02
      0.700000E-01      0.637177E-02
      0.750000E-01      0.568089E-02
      0.800000E-01      0.502527E-02
      0.850000E-01      0.441205E-02
      0.900000E-01      0.384680E-02
      0.950000E-01      0.333350E-02
      0.100000          0.287454E-02
      0.105000          0.247082E-02
      0.110000          0.212179E-02
      0.115000          0.182565E-02
      0.120000          0.157954E-02
      0.125000          0.137966E-02
      0.130000          0.122155E-02
      0.135000          0.110026E-02
      0.140000          0.101058E-02
      0.145000          0.947204E-03
      0.150000          0.904939E-03
      0.155000          0.878837E-03
      0.160000          0.864329E-03
      0.165000          0.857323E-03
      0.170000          0.854274E-03
      0.175000          0.852225E-03
      0.180000          0.848820E-03
      0.185000          0.842296E-03
      0.190000          0.831449E-03
      0.195000          0.815589E-03
      0.200000          0.794475E-03
      0.205000          0.768246E-03
      0.210000          0.737348E-03
      0.215000          0.702453E-03
      0.220000          0.664393E-03
      0.225000          0.624085E-03
      0.230000          0.582471E-03
      0.235000          0.540472E-03
      0.240000          0.498937E-03
      0.245000          0.458621E-03
      0.250000          0.420156E-03
      0.255000          0.384043E-03
      0.260000          0.350647E-03
      0.265000          0.320203E-03
      0.270000          0.292822E-03
      0.275000          0.268510E-03
      0.280000          0.247180E-03
      0.285000          0.228673E-03
      0.290000          0.212777E-03
      0.295000          0.199246E-03
      0.300000          0.187812E-03
      0.305000          0.178204E-03
      0.310000          0.170160E-03
      0.315000          0.163431E-03
      0.320000          0.157794E-03
      0.325000          0.153050E-03
      0.330000          0.149030E-03
      0.335000          0.145595E-03
      0.340000          0.142629E-03
      0.345000          0.140043E-03
      0.350000          0.137765E-03
      0.355000          0.135744E-03
      0.360000          0.133939E-03
      0.365000          0.132318E-03
      0.370000          0.130858E-03
      0.375000          0.129538E-03
      0.380000          0.128338E-03
      0.385000          0.127242E-03
      0.390000          0.126231E-03
      0.395000          0.125287E-03
      0.400000          0.124393E-03
      0.405000          0.123531E-03
      0.410000          0.122684E-03
      0.415000          0.121838E-03
      0.420000          0.120980E-03
      0.425000          0.120100E-03
      0.430000          0.119192E-03
      0.435000          0.118254E-03
      0.440000          0.117284E-03
      0.445000          0.116286E-03
      0.450000          0.115267E-03
      0.455000          0.114235E-03
      0.460000          0.113198E-03
      0.465000          0.112169E-03
      0.470000          0.111157E-03
      0.475000          0.110175E-03
      0.480000          0.109233E-03
      0.485000          0.108339E-03
      0.490000          0.107501E-03
      0.495000          0.106727E-03
      0.500000          0.106020E-03
