 I_abs(s)[cm^-1]/c[mg/ml]
       0.00000          0.138056E-01
      0.500000E-02      0.137535E-01
      0.100000E-01      0.135983E-01
      0.150000E-01      0.133433E-01
      0.200000E-01      0.129940E-01
      0.250000E-01      0.125577E-01
      0.300000E-01      0.120434E-01
      0.350000E-01      0.114616E-01
      0.400000E-01      0.108237E-01
      0.450000E-01      0.101422E-01
      0.500000E-01      0.942961E-02
      0.550000E-01      0.869863E-02
      0.600000E-01      0.796164E-02
      0.650000E-01      0.723036E-02
      0.700000E-01      0.651559E-02
      0.750000E-01      0.582697E-02
      0.800000E-01      0.517281E-02
      0.850000E-01      0.455993E-02
      0.900000E-01      0.399361E-02
      0.950000E-01      0.347756E-02
      0.100000          0.301396E-02
      0.105000          0.260354E-02
      0.110000          0.224571E-02
      0.115000          0.193869E-02
      0.120000          0.167973E-02
      0.125000          0.146526E-02
      0.130000          0.129113E-02
      0.135000          0.115278E-02
      0.140000          0.104545E-02
      0.145000          0.964332E-03
      0.150000          0.904750E-03
      0.155000          0.862265E-03
      0.160000          0.832789E-03
      0.165000          0.812662E-03
      0.170000          0.798695E-03
      0.175000          0.788201E-03
      0.180000          0.778994E-03
      0.185000          0.769373E-03
      0.190000          0.758092E-03
      0.195000          0.744314E-03
      0.200000          0.727561E-03
      0.205000          0.707657E-03
      0.210000          0.684671E-03
      0.215000          0.658862E-03
      0.220000          0.630623E-03
      0.225000          0.600441E-03
      0.230000          0.568848E-03
      0.235000          0.536390E-03
      0.240000          0.503601E-03
      0.245000          0.470980E-03
      0.250000          0.438977E-03
      0.255000          0.407983E-03
      0.260000          0.378325E-03
      0.265000          0.350266E-03
      0.270000          0.324003E-03
      0.275000          0.299674E-03
      0.280000          0.277363E-03
      0.285000          0.257100E-03
      0.290000          0.238876E-03
      0.295000          0.222641E-03
      0.300000          0.208316E-03
      0.305000          0.195794E-03
      0.310000          0.184949E-03
      0.315000          0.175642E-03
      0.320000          0.167721E-03
      0.325000          0.161031E-03
      0.330000          0.155416E-03
      0.335000          0.150720E-03
      0.340000          0.146797E-03
      0.345000          0.143506E-03
      0.350000          0.140719E-03
      0.355000          0.138322E-03
      0.360000          0.136214E-03
      0.365000          0.134309E-03
      0.370000          0.132536E-03
      0.375000          0.130840E-03
      0.380000          0.129178E-03
      0.385000          0.127520E-03
      0.390000          0.125849E-03
      0.395000          0.124155E-03
      0.400000          0.122436E-03
      0.405000          0.120698E-03
      0.410000          0.118949E-03
      0.415000          0.117202E-03
      0.420000          0.115469E-03
      0.425000          0.113765E-03
      0.430000          0.112105E-03
      0.435000          0.110502E-03
      0.440000          0.108970E-03
      0.445000          0.107522E-03
      0.450000          0.106170E-03
      0.455000          0.104923E-03
      0.460000          0.103791E-03
      0.465000          0.102783E-03
      0.470000          0.101906E-03
      0.475000          0.101164E-03
      0.480000          0.100560E-03
      0.485000          0.100095E-03
      0.490000          0.997659E-04
      0.495000          0.995659E-04
      0.500000          0.994852E-04
