 I_abs(s)[cm^-1]/c[mg/ml]
       0.00000          0.135284E-01
      0.500000E-02      0.134740E-01
      0.100000E-01      0.133121E-01
      0.150000E-01      0.130466E-01
      0.200000E-01      0.126834E-01
      0.250000E-01      0.122310E-01
      0.300000E-01      0.116995E-01
      0.350000E-01      0.111006E-01
      0.400000E-01      0.104472E-01
      0.450000E-01      0.975293E-02
      0.500000E-01      0.903159E-02
      0.550000E-01      0.829701E-02
      0.600000E-01      0.756245E-02
      0.650000E-01      0.684029E-02
      0.700000E-01      0.614170E-02
      0.750000E-01      0.547640E-02
      0.800000E-01      0.485245E-02
      0.850000E-01      0.427614E-02
      0.900000E-01      0.375195E-02
      0.950000E-01      0.328253E-02
      0.100000          0.286882E-02
      0.105000          0.251018E-02
      0.110000          0.220455E-02
      0.115000          0.194869E-02
      0.120000          0.173840E-02
      0.125000          0.156881E-02
      0.130000          0.143459E-02
      0.135000          0.133022E-02
      0.140000          0.125020E-02
      0.145000          0.118925E-02
      0.150000          0.114246E-02
      0.155000          0.110546E-02
      0.160000          0.107444E-02
      0.165000          0.104627E-02
      0.170000          0.101847E-02
      0.175000          0.989244E-03
      0.180000          0.957382E-03
      0.185000          0.922244E-03
      0.190000          0.883664E-03
      0.195000          0.841863E-03
      0.200000          0.797365E-03
      0.205000          0.750897E-03
      0.210000          0.703310E-03
      0.215000          0.655499E-03
      0.220000          0.608340E-03
      0.225000          0.562634E-03
      0.230000          0.519068E-03
      0.235000          0.478192E-03
      0.240000          0.440405E-03
      0.245000          0.405952E-03
      0.250000          0.374932E-03
      0.255000          0.347314E-03
      0.260000          0.322959E-03
      0.265000          0.301641E-03
      0.270000          0.283072E-03
      0.275000          0.266930E-03
      0.280000          0.252877E-03
      0.285000          0.240580E-03
      0.290000          0.229731E-03
      0.295000          0.220050E-03
      0.300000          0.211300E-03
      0.305000          0.203288E-03
      0.310000          0.195865E-03
      0.315000          0.188924E-03
      0.320000          0.182394E-03
      0.325000          0.176234E-03
      0.330000          0.170430E-03
      0.335000          0.164978E-03
      0.340000          0.159890E-03
      0.345000          0.155176E-03
      0.350000          0.150847E-03
      0.355000          0.146910E-03
      0.360000          0.143362E-03
      0.365000          0.140193E-03
      0.370000          0.137385E-03
      0.375000          0.134913E-03
      0.380000          0.132746E-03
      0.385000          0.130851E-03
      0.390000          0.129194E-03
      0.395000          0.127740E-03
      0.400000          0.126459E-03
      0.405000          0.125325E-03
      0.410000          0.124319E-03
      0.415000          0.123426E-03
      0.420000          0.122636E-03
      0.425000          0.121945E-03
      0.430000          0.121352E-03
      0.435000          0.120859E-03
      0.440000          0.120468E-03
      0.445000          0.120179E-03
      0.450000          0.119991E-03
      0.455000          0.119899E-03
      0.460000          0.119894E-03
      0.465000          0.119960E-03
      0.470000          0.120078E-03
      0.475000          0.120224E-03
      0.480000          0.120368E-03
      0.485000          0.120481E-03
      0.490000          0.120528E-03
      0.495000          0.120477E-03
      0.500000          0.120297E-03
