 I_abs(s)[cm^-1]/c[mg/ml]
       0.00000          0.134901E-01
      0.500000E-02      0.134359E-01
      0.100000E-01      0.132745E-01
      0.150000E-01      0.130096E-01
      0.200000E-01      0.126472E-01
      0.250000E-01      0.121956E-01
      0.300000E-01      0.116646E-01
      0.350000E-01      0.110658E-01
      0.400000E-01      0.104119E-01
      0.450000E-01      0.971640E-02
      0.500000E-01      0.899300E-02
      0.550000E-01      0.825544E-02
      0.600000E-01      0.751699E-02
      0.650000E-01      0.679007E-02
      0.700000E-01      0.608596E-02
      0.750000E-01      0.541455E-02
      0.800000E-01      0.478412E-02
      0.850000E-01      0.420121E-02
      0.900000E-01      0.367058E-02
      0.950000E-01      0.319515E-02
      0.100000          0.277616E-02
      0.105000          0.241319E-02
      0.110000          0.210440E-02
      0.115000          0.184672E-02
      0.120000          0.163604E-02
      0.125000          0.146752E-02
      0.130000          0.133581E-02
      0.135000          0.123528E-02
      0.140000          0.116028E-02
      0.145000          0.110534E-02
      0.150000          0.106531E-02
      0.155000          0.103554E-02
      0.160000          0.101197E-02
      0.165000          0.991201E-03
      0.170000          0.970512E-03
      0.175000          0.947874E-03
      0.180000          0.921910E-03
      0.185000          0.891843E-03
      0.190000          0.857424E-03
      0.195000          0.818840E-03
      0.200000          0.776624E-03
      0.205000          0.731563E-03
      0.210000          0.684599E-03
      0.215000          0.636750E-03
      0.220000          0.589031E-03
      0.225000          0.542399E-03
      0.230000          0.497696E-03
      0.235000          0.455623E-03
      0.240000          0.416716E-03
      0.245000          0.381337E-03
      0.250000          0.349685E-03
      0.255000          0.321798E-03
      0.260000          0.297583E-03
      0.265000          0.276835E-03
      0.270000          0.259260E-03
      0.275000          0.244513E-03
      0.280000          0.232212E-03
      0.285000          0.221969E-03
      0.290000          0.213406E-03
      0.295000          0.206176E-03
      0.300000          0.199965E-03
      0.305000          0.194510E-03
      0.310000          0.189592E-03
      0.315000          0.185043E-03
      0.320000          0.180740E-03
      0.325000          0.176600E-03
      0.330000          0.172571E-03
      0.335000          0.168632E-03
      0.340000          0.164777E-03
      0.345000          0.161013E-03
      0.350000          0.157357E-03
      0.355000          0.153826E-03
      0.360000          0.150434E-03
      0.365000          0.147193E-03
      0.370000          0.144112E-03
      0.375000          0.141193E-03
      0.380000          0.138433E-03
      0.385000          0.135828E-03
      0.390000          0.133370E-03
      0.395000          0.131052E-03
      0.400000          0.128866E-03
      0.405000          0.126807E-03
      0.410000          0.124871E-03
      0.415000          0.123056E-03
      0.420000          0.121364E-03
      0.425000          0.119796E-03
      0.430000          0.118355E-03
      0.435000          0.117044E-03
      0.440000          0.115865E-03
      0.445000          0.114818E-03
      0.450000          0.113900E-03
      0.455000          0.113103E-03
      0.460000          0.112420E-03
      0.465000          0.111836E-03
      0.470000          0.111335E-03
      0.475000          0.110898E-03
      0.480000          0.110505E-03
      0.485000          0.110135E-03
      0.490000          0.109768E-03
      0.495000          0.109383E-03
      0.500000          0.108965E-03
