 I_abs(s)[cm^-1]/c[mg/ml]
       0.00000          0.137206E-01
      0.500000E-02      0.136659E-01
      0.100000E-01      0.135033E-01
      0.150000E-01      0.132365E-01
      0.200000E-01      0.128720E-01
      0.250000E-01      0.124182E-01
      0.300000E-01      0.118856E-01
      0.350000E-01      0.112861E-01
      0.400000E-01      0.106327E-01
      0.450000E-01      0.993929E-02
      0.500000E-01      0.921961E-02
      0.550000E-01      0.848737E-02
      0.600000E-01      0.775559E-02
      0.650000E-01      0.703629E-02
      0.700000E-01      0.634019E-02
      0.750000E-01      0.567644E-02
      0.800000E-01      0.505252E-02
      0.850000E-01      0.447411E-02
      0.900000E-01      0.394510E-02
      0.950000E-01      0.346767E-02
      0.100000          0.304236E-02
      0.105000          0.266830E-02
      0.110000          0.234341E-02
      0.115000          0.206458E-02
      0.120000          0.182799E-02
      0.125000          0.162929E-02
      0.130000          0.146388E-02
      0.135000          0.132709E-02
      0.140000          0.121437E-02
      0.145000          0.112144E-02
      0.150000          0.104440E-02
      0.155000          0.979801E-03
      0.160000          0.924705E-03
      0.165000          0.876673E-03
      0.170000          0.833761E-03
      0.175000          0.794481E-03
      0.180000          0.757751E-03
      0.185000          0.722828E-03
      0.190000          0.689250E-03
      0.195000          0.656766E-03
      0.200000          0.625274E-03
      0.205000          0.594775E-03
      0.210000          0.565319E-03
      0.215000          0.536980E-03
      0.220000          0.509824E-03
      0.225000          0.483898E-03
      0.230000          0.459222E-03
      0.235000          0.435787E-03
      0.240000          0.413560E-03
      0.245000          0.392489E-03
      0.250000          0.372512E-03
      0.255000          0.353564E-03
      0.260000          0.335584E-03
      0.265000          0.318521E-03
      0.270000          0.302333E-03
      0.275000          0.286993E-03
      0.280000          0.272485E-03
      0.285000          0.258802E-03
      0.290000          0.245942E-03
      0.295000          0.233906E-03
      0.300000          0.222691E-03
      0.305000          0.212292E-03
      0.310000          0.202694E-03
      0.315000          0.193875E-03
      0.320000          0.185805E-03
      0.325000          0.178444E-03
      0.330000          0.171747E-03
      0.335000          0.165667E-03
      0.340000          0.160154E-03
      0.345000          0.155159E-03
      0.350000          0.150638E-03
      0.355000          0.146550E-03
      0.360000          0.142863E-03
      0.365000          0.139551E-03
      0.370000          0.136593E-03
      0.375000          0.133976E-03
      0.380000          0.131689E-03
      0.385000          0.129725E-03
      0.390000          0.128076E-03
      0.395000          0.126735E-03
      0.400000          0.125689E-03
      0.405000          0.124922E-03
      0.410000          0.124413E-03
      0.415000          0.124134E-03
      0.420000          0.124051E-03
      0.425000          0.124128E-03
      0.430000          0.124323E-03
      0.435000          0.124590E-03
      0.440000          0.124884E-03
      0.445000          0.125161E-03
      0.450000          0.125379E-03
      0.455000          0.125500E-03
      0.460000          0.125492E-03
      0.465000          0.125329E-03
      0.470000          0.124994E-03
      0.475000          0.124474E-03
      0.480000          0.123769E-03
      0.485000          0.122881E-03
      0.490000          0.121823E-03
      0.495000          0.120610E-03
      0.500000          0.119265E-03
