 I_abs(s)[cm^-1]/c[mg/ml]
       0.00000          0.137360E-01
      0.500000E-02      0.136856E-01
      0.100000E-01      0.135354E-01
      0.150000E-01      0.132884E-01
      0.200000E-01      0.129498E-01
      0.250000E-01      0.125263E-01
      0.300000E-01      0.120265E-01
      0.350000E-01      0.114601E-01
      0.400000E-01      0.108381E-01
      0.450000E-01      0.101720E-01
      0.500000E-01      0.947391E-02
      0.550000E-01      0.875596E-02
      0.600000E-01      0.803007E-02
      0.650000E-01      0.730768E-02
      0.700000E-01      0.659940E-02
      0.750000E-01      0.591482E-02
      0.800000E-01      0.526234E-02
      0.850000E-01      0.464899E-02
      0.900000E-01      0.408035E-02
      0.950000E-01      0.356050E-02
      0.100000          0.309207E-02
      0.105000          0.267624E-02
      0.110000          0.231285E-02
      0.115000          0.200056E-02
      0.120000          0.173695E-02
      0.125000          0.151877E-02
      0.130000          0.134203E-02
      0.135000          0.120231E-02
      0.140000          0.109482E-02
      0.145000          0.101471E-02
      0.150000          0.957118E-03
      0.155000          0.917389E-03
      0.160000          0.891164E-03
      0.165000          0.874482E-03
      0.170000          0.863850E-03
      0.175000          0.856284E-03
      0.180000          0.849331E-03
      0.185000          0.841065E-03
      0.190000          0.830069E-03
      0.195000          0.815394E-03
      0.200000          0.796510E-03
      0.205000          0.773253E-03
      0.210000          0.745760E-03
      0.215000          0.714405E-03
      0.220000          0.679739E-03
      0.225000          0.642428E-03
      0.230000          0.603208E-03
      0.235000          0.562829E-03
      0.240000          0.522029E-03
      0.245000          0.481494E-03
      0.250000          0.441844E-03
      0.255000          0.403614E-03
      0.260000          0.367249E-03
      0.265000          0.333101E-03
      0.270000          0.301431E-03
      0.275000          0.272417E-03
      0.280000          0.246159E-03
      0.285000          0.222690E-03
      0.290000          0.201985E-03
      0.295000          0.183975E-03
      0.300000          0.168547E-03
      0.305000          0.155562E-03
      0.310000          0.144856E-03
      0.315000          0.136247E-03
      0.320000          0.129542E-03
      0.325000          0.124538E-03
      0.330000          0.121026E-03
      0.335000          0.118795E-03
      0.340000          0.117636E-03
      0.345000          0.117341E-03
      0.350000          0.117708E-03
      0.355000          0.118542E-03
      0.360000          0.119661E-03
      0.365000          0.120896E-03
      0.370000          0.122095E-03
      0.375000          0.123126E-03
      0.380000          0.123878E-03
      0.385000          0.124264E-03
      0.390000          0.124224E-03
      0.395000          0.123721E-03
      0.400000          0.122745E-03
      0.405000          0.121310E-03
      0.410000          0.119453E-03
      0.415000          0.117229E-03
      0.420000          0.114710E-03
      0.425000          0.111981E-03
      0.430000          0.109134E-03
      0.435000          0.106266E-03
      0.440000          0.103471E-03
      0.445000          0.100842E-03
      0.450000          0.984589E-04
      0.455000          0.963938E-04
      0.460000          0.947024E-04
      0.465000          0.934252E-04
      0.470000          0.925854E-04
      0.475000          0.921891E-04
      0.480000          0.922257E-04
      0.485000          0.926693E-04
      0.490000          0.934801E-04
      0.495000          0.946073E-04
      0.500000          0.959910E-04
