 I_abs(s)[cm^-1]/c[mg/ml]
       0.00000          0.135514E-01
      0.500000E-02      0.134954E-01
      0.100000E-01      0.133287E-01
      0.150000E-01      0.130553E-01
      0.200000E-01      0.126816E-01
      0.250000E-01      0.122162E-01
      0.300000E-01      0.116697E-01
      0.350000E-01      0.110543E-01
      0.400000E-01      0.103833E-01
      0.450000E-01      0.967079E-02
      0.500000E-01      0.893127E-02
      0.550000E-01      0.817895E-02
      0.600000E-01      0.742754E-02
      0.650000E-01      0.668981E-02
      0.700000E-01      0.597727E-02
      0.750000E-01      0.529988E-02
      0.800000E-01      0.466589E-02
      0.850000E-01      0.408171E-02
      0.900000E-01      0.355185E-02
      0.950000E-01      0.307896E-02
      0.100000          0.266391E-02
      0.105000          0.230595E-02
      0.110000          0.200289E-02
      0.115000          0.175133E-02
      0.120000          0.154690E-02
      0.125000          0.138455E-02
      0.130000          0.125877E-02
      0.135000          0.116389E-02
      0.140000          0.109423E-02
      0.145000          0.104437E-02
      0.150000          0.100924E-02
      0.155000          0.984320E-03
      0.160000          0.965670E-03
      0.165000          0.950005E-03
      0.170000          0.934705E-03
      0.175000          0.917801E-03
      0.180000          0.897935E-03
      0.185000          0.874300E-03
      0.190000          0.846564E-03
      0.195000          0.814789E-03
      0.200000          0.779343E-03
      0.205000          0.740818E-03
      0.210000          0.699949E-03
      0.215000          0.657543E-03
      0.220000          0.614423E-03
      0.225000          0.571374E-03
      0.230000          0.529112E-03
      0.235000          0.488257E-03
      0.240000          0.449320E-03
      0.245000          0.412695E-03
      0.250000          0.378667E-03
      0.255000          0.347417E-03
      0.260000          0.319032E-03
      0.265000          0.293525E-03
      0.270000          0.270841E-03
      0.275000          0.250881E-03
      0.280000          0.233505E-03
      0.285000          0.218552E-03
      0.290000          0.205842E-03
      0.295000          0.195185E-03
      0.300000          0.186387E-03
      0.305000          0.179252E-03
      0.310000          0.173582E-03
      0.315000          0.169184E-03
      0.320000          0.165865E-03
      0.325000          0.163435E-03
      0.330000          0.161709E-03
      0.335000          0.160509E-03
      0.340000          0.159667E-03
      0.345000          0.159021E-03
      0.350000          0.158430E-03
      0.355000          0.157763E-03
      0.360000          0.156915E-03
      0.365000          0.155800E-03
      0.370000          0.154355E-03
      0.375000          0.152544E-03
      0.380000          0.150357E-03
      0.385000          0.147805E-03
      0.390000          0.144925E-03
      0.395000          0.141770E-03
      0.400000          0.138410E-03
      0.405000          0.134929E-03
      0.410000          0.131414E-03
      0.415000          0.127957E-03
      0.420000          0.124647E-03
      0.425000          0.121566E-03
      0.430000          0.118786E-03
      0.435000          0.116366E-03
      0.440000          0.114348E-03
      0.445000          0.112757E-03
      0.450000          0.111600E-03
      0.455000          0.110867E-03
      0.460000          0.110532E-03
      0.465000          0.110555E-03
      0.470000          0.110882E-03
      0.475000          0.111452E-03
      0.480000          0.112197E-03
      0.485000          0.113047E-03
      0.490000          0.113931E-03
      0.495000          0.114783E-03
      0.500000          0.115541E-03
