 I_abs(s)[cm^-1]/c[mg/ml]
       0.00000          0.136897E-01
      0.500000E-02      0.136414E-01
      0.100000E-01      0.134975E-01
      0.150000E-01      0.132606E-01
      0.200000E-01      0.129356E-01
      0.250000E-01      0.125285E-01
      0.300000E-01      0.120472E-01
      0.350000E-01      0.115006E-01
      0.400000E-01      0.108987E-01
      0.450000E-01      0.102524E-01
      0.500000E-01      0.957284E-02
      0.550000E-01      0.887140E-02
      0.600000E-01      0.815936E-02
      0.650000E-01      0.744762E-02
      0.700000E-01      0.674642E-02
      0.750000E-01      0.606514E-02
      0.800000E-01      0.541214E-02
      0.850000E-01      0.479455E-02
      0.900000E-01      0.421822E-02
      0.950000E-01      0.368765E-02
      0.100000          0.320595E-02
      0.105000          0.277489E-02
      0.110000          0.239494E-02
      0.115000          0.206541E-02
      0.120000          0.178450E-02
      0.125000          0.154953E-02
      0.130000          0.135706E-02
      0.135000          0.120304E-02
      0.140000          0.108306E-02
      0.145000          0.992425E-03
      0.150000          0.926407E-03
      0.155000          0.880334E-03
      0.160000          0.849750E-03
      0.165000          0.830509E-03
      0.170000          0.818876E-03
      0.175000          0.811579E-03
      0.180000          0.805858E-03
      0.185000          0.799479E-03
      0.190000          0.790732E-03
      0.195000          0.778412E-03
      0.200000          0.761781E-03
      0.205000          0.740518E-03
      0.210000          0.714667E-03
      0.215000          0.684565E-03
      0.220000          0.650788E-03
      0.225000          0.614072E-03
      0.230000          0.575263E-03
      0.235000          0.535251E-03
      0.240000          0.494922E-03
      0.245000          0.455116E-03
      0.250000          0.416592E-03
      0.255000          0.380000E-03
      0.260000          0.345868E-03
      0.265000          0.314590E-03
      0.270000          0.286427E-03
      0.275000          0.261509E-03
      0.280000          0.239848E-03
      0.285000          0.221352E-03
      0.290000          0.205838E-03
      0.295000          0.193056E-03
      0.300000          0.182706E-03
      0.305000          0.174455E-03
      0.310000          0.167955E-03
      0.315000          0.162863E-03
      0.320000          0.158848E-03
      0.325000          0.155606E-03
      0.330000          0.152867E-03
      0.335000          0.150401E-03
      0.340000          0.148023E-03
      0.345000          0.145588E-03
      0.350000          0.142997E-03
      0.355000          0.140189E-03
      0.360000          0.137142E-03
      0.365000          0.133863E-03
      0.370000          0.130384E-03
      0.375000          0.126760E-03
      0.380000          0.123059E-03
      0.385000          0.119357E-03
      0.390000          0.115736E-03
      0.395000          0.112276E-03
      0.400000          0.109052E-03
      0.405000          0.106133E-03
      0.410000          0.103578E-03
      0.415000          0.101433E-03
      0.420000          0.997319E-04
      0.425000          0.984938E-04
      0.430000          0.977250E-04
      0.435000          0.974183E-04
      0.440000          0.975537E-04
      0.445000          0.980997E-04
      0.450000          0.990143E-04
      0.455000          0.100247E-03
      0.460000          0.101740E-03
      0.465000          0.103430E-03
      0.470000          0.105251E-03
      0.475000          0.107134E-03
      0.480000          0.109009E-03
      0.485000          0.110812E-03
      0.490000          0.112477E-03
      0.495000          0.113948E-03
      0.500000          0.115172E-03
