 I_abs(s)[cm^-1]/c[mg/ml]
       0.00000          0.139453E-01
      0.500000E-02      0.138938E-01
      0.100000E-01      0.137407E-01
      0.150000E-01      0.134891E-01
      0.200000E-01      0.131443E-01
      0.250000E-01      0.127136E-01
      0.300000E-01      0.122059E-01
      0.350000E-01      0.116313E-01
      0.400000E-01      0.110013E-01
      0.450000E-01      0.103279E-01
      0.500000E-01      0.962346E-02
      0.550000E-01      0.890051E-02
      0.600000E-01      0.817113E-02
      0.650000E-01      0.744681E-02
      0.700000E-01      0.673814E-02
      0.750000E-01      0.605455E-02
      0.800000E-01      0.540414E-02
      0.850000E-01      0.479358E-02
      0.900000E-01      0.422800E-02
      0.950000E-01      0.371098E-02
      0.100000          0.324464E-02
      0.105000          0.282964E-02
      0.110000          0.246537E-02
      0.115000          0.215008E-02
      0.120000          0.188107E-02
      0.125000          0.165486E-02
      0.130000          0.146743E-02
      0.135000          0.131437E-02
      0.140000          0.119112E-02
      0.145000          0.109309E-02
      0.150000          0.101585E-02
      0.155000          0.955233E-03
      0.160000          0.907419E-03
      0.165000          0.869035E-03
      0.170000          0.837174E-03
      0.175000          0.809425E-03
      0.180000          0.783860E-03
      0.185000          0.759011E-03
      0.190000          0.733838E-03
      0.195000          0.707670E-03
      0.200000          0.680156E-03
      0.205000          0.651202E-03
      0.210000          0.620914E-03
      0.215000          0.589539E-03
      0.220000          0.557421E-03
      0.225000          0.524949E-03
      0.230000          0.492527E-03
      0.235000          0.460546E-03
      0.240000          0.429358E-03
      0.245000          0.399270E-03
      0.250000          0.370534E-03
      0.255000          0.343346E-03
      0.260000          0.317846E-03
      0.265000          0.294127E-03
      0.270000          0.272239E-03
      0.275000          0.252196E-03
      0.280000          0.233984E-03
      0.285000          0.217568E-03
      0.290000          0.202896E-03
      0.295000          0.189902E-03
      0.300000          0.178512E-03
      0.305000          0.168642E-03
      0.310000          0.160202E-03
      0.315000          0.153094E-03
      0.320000          0.147216E-03
      0.325000          0.142456E-03
      0.330000          0.138700E-03
      0.335000          0.135827E-03
      0.340000          0.133713E-03
      0.345000          0.132234E-03
      0.350000          0.131266E-03
      0.355000          0.130691E-03
      0.360000          0.130396E-03
      0.365000          0.130280E-03
      0.370000          0.130253E-03
      0.375000          0.130242E-03
      0.380000          0.130186E-03
      0.385000          0.130044E-03
      0.390000          0.129792E-03
      0.395000          0.129418E-03
      0.400000          0.128928E-03
      0.405000          0.128339E-03
      0.410000          0.127676E-03
      0.415000          0.126970E-03
      0.420000          0.126257E-03
      0.425000          0.125572E-03
      0.430000          0.124945E-03
      0.435000          0.124403E-03
      0.440000          0.123966E-03
      0.445000          0.123644E-03
      0.450000          0.123438E-03
      0.455000          0.123339E-03
      0.460000          0.123331E-03
      0.465000          0.123388E-03
      0.470000          0.123480E-03
      0.475000          0.123569E-03
      0.480000          0.123618E-03
      0.485000          0.123589E-03
      0.490000          0.123444E-03
      0.495000          0.123151E-03
      0.500000          0.122680E-03
