 I_abs(s)[cm^-1]/c[mg/ml]
       0.00000          0.135897E-01
      0.500000E-02      0.135405E-01
      0.100000E-01      0.133938E-01
      0.150000E-01      0.131526E-01
      0.200000E-01      0.128219E-01
      0.250000E-01      0.124083E-01
      0.300000E-01      0.119201E-01
      0.350000E-01      0.113669E-01
      0.400000E-01      0.107591E-01
      0.450000E-01      0.101082E-01
      0.500000E-01      0.942574E-02
      0.550000E-01      0.872366E-02
      0.600000E-01      0.801349E-02
      0.650000E-01      0.730631E-02
      0.700000E-01      0.661241E-02
      0.750000E-01      0.594109E-02
      0.800000E-01      0.530045E-02
      0.850000E-01      0.469730E-02
      0.900000E-01      0.413702E-02
      0.950000E-01      0.362357E-02
      0.100000          0.315946E-02
      0.105000          0.274583E-02
      0.110000          0.238256E-02
      0.115000          0.206836E-02
      0.120000          0.180093E-02
      0.125000          0.157717E-02
      0.130000          0.139331E-02
      0.135000          0.124514E-02
      0.140000          0.112815E-02
      0.145000          0.103774E-02
      0.150000          0.969342E-03
      0.155000          0.918576E-03
      0.160000          0.881355E-03
      0.165000          0.853975E-03
      0.170000          0.833176E-03
      0.175000          0.816179E-03
      0.180000          0.800707E-03
      0.185000          0.784974E-03
      0.190000          0.767668E-03
      0.195000          0.747908E-03
      0.200000          0.725199E-03
      0.205000          0.699379E-03
      0.210000          0.670555E-03
      0.215000          0.639046E-03
      0.220000          0.605327E-03
      0.225000          0.569971E-03
      0.230000          0.533602E-03
      0.235000          0.496854E-03
      0.240000          0.460341E-03
      0.245000          0.424622E-03
      0.250000          0.390193E-03
      0.255000          0.357466E-03
      0.260000          0.326769E-03
      0.265000          0.298345E-03
      0.270000          0.272352E-03
      0.275000          0.248874E-03
      0.280000          0.227926E-03
      0.285000          0.209467E-03
      0.290000          0.193409E-03
      0.295000          0.179624E-03
      0.300000          0.167959E-03
      0.305000          0.158240E-03
      0.310000          0.150281E-03
      0.315000          0.143890E-03
      0.320000          0.138872E-03
      0.325000          0.135038E-03
      0.330000          0.132203E-03
      0.335000          0.130190E-03
      0.340000          0.128834E-03
      0.345000          0.127982E-03
      0.350000          0.127494E-03
      0.355000          0.127244E-03
      0.360000          0.127122E-03
      0.365000          0.127035E-03
      0.370000          0.126904E-03
      0.375000          0.126670E-03
      0.380000          0.126288E-03
      0.385000          0.125729E-03
      0.390000          0.124982E-03
      0.395000          0.124047E-03
      0.400000          0.122938E-03
      0.405000          0.121680E-03
      0.410000          0.120306E-03
      0.415000          0.118855E-03
      0.420000          0.117369E-03
      0.425000          0.115892E-03
      0.430000          0.114467E-03
      0.435000          0.113134E-03
      0.440000          0.111926E-03
      0.445000          0.110871E-03
      0.450000          0.109990E-03
      0.455000          0.109293E-03
      0.460000          0.108785E-03
      0.465000          0.108459E-03
      0.470000          0.108305E-03
      0.475000          0.108303E-03
      0.480000          0.108428E-03
      0.485000          0.108653E-03
      0.490000          0.108946E-03
      0.495000          0.109276E-03
      0.500000          0.109612E-03
