 I_abs(s)[cm^-1]/c[mg/ml]
       0.00000          0.136128E-01
      0.500000E-02      0.135601E-01
      0.100000E-01      0.134031E-01
      0.150000E-01      0.131454E-01
      0.200000E-01      0.127926E-01
      0.250000E-01      0.123526E-01
      0.300000E-01      0.118349E-01
      0.350000E-01      0.112503E-01
      0.400000E-01      0.106110E-01
      0.450000E-01      0.992967E-02
      0.500000E-01      0.921944E-02
      0.550000E-01      0.849333E-02
      0.600000E-01      0.776391E-02
      0.650000E-01      0.704302E-02
      0.700000E-01      0.634142E-02
      0.750000E-01      0.566859E-02
      0.800000E-01      0.503253E-02
      0.850000E-01      0.443967E-02
      0.900000E-01      0.389478E-02
      0.950000E-01      0.340102E-02
      0.100000          0.295996E-02
      0.105000          0.257173E-02
      0.110000          0.223516E-02
      0.115000          0.194793E-02
      0.120000          0.170682E-02
      0.125000          0.150791E-02
      0.130000          0.134676E-02
      0.135000          0.121865E-02
      0.140000          0.111877E-02
      0.145000          0.104236E-02
      0.150000          0.984883E-03
      0.155000          0.942117E-03
      0.160000          0.910253E-03
      0.165000          0.885948E-03
      0.170000          0.866357E-03
      0.175000          0.849137E-03
      0.180000          0.832437E-03
      0.185000          0.814864E-03
      0.190000          0.795443E-03
      0.195000          0.773566E-03
      0.200000          0.748937E-03
      0.205000          0.721518E-03
      0.210000          0.691469E-03
      0.215000          0.659103E-03
      0.220000          0.624838E-03
      0.225000          0.589159E-03
      0.230000          0.552581E-03
      0.235000          0.515628E-03
      0.240000          0.478807E-03
      0.245000          0.442598E-03
      0.250000          0.407436E-03
      0.255000          0.373710E-03
      0.260000          0.341755E-03
      0.265000          0.311851E-03
      0.270000          0.284221E-03
      0.275000          0.259031E-03
      0.280000          0.236392E-03
      0.285000          0.216361E-03
      0.290000          0.198941E-03
      0.295000          0.184088E-03
      0.300000          0.171712E-03
      0.305000          0.161680E-03
      0.310000          0.153821E-03
      0.315000          0.147933E-03
      0.320000          0.143791E-03
      0.325000          0.141148E-03
      0.330000          0.139747E-03
      0.335000          0.139328E-03
      0.340000          0.139634E-03
      0.345000          0.140419E-03
      0.350000          0.141454E-03
      0.355000          0.142532E-03
      0.360000          0.143475E-03
      0.365000          0.144135E-03
      0.370000          0.144398E-03
      0.375000          0.144182E-03
      0.380000          0.143441E-03
      0.385000          0.142159E-03
      0.390000          0.140351E-03
      0.395000          0.138057E-03
      0.400000          0.135337E-03
      0.405000          0.132270E-03
      0.410000          0.128946E-03
      0.415000          0.125462E-03
      0.420000          0.121919E-03
      0.425000          0.118415E-03
      0.430000          0.115041E-03
      0.435000          0.111882E-03
      0.440000          0.109009E-03
      0.445000          0.106481E-03
      0.450000          0.104342E-03
      0.455000          0.102619E-03
      0.460000          0.101326E-03
      0.465000          0.100461E-03
      0.470000          0.100009E-03
      0.475000          0.999418E-04
      0.480000          0.100221E-03
      0.485000          0.100799E-03
      0.490000          0.101622E-03
      0.495000          0.102633E-03
      0.500000          0.103768E-03
