 I_abs(s)[cm^-1]/c[mg/ml]
       0.00000          0.138056E-01
      0.500000E-02      0.137578E-01
      0.100000E-01      0.136153E-01
      0.150000E-01      0.133809E-01
      0.200000E-01      0.130589E-01
      0.250000E-01      0.126555E-01
      0.300000E-01      0.121782E-01
      0.350000E-01      0.116357E-01
      0.400000E-01      0.110378E-01
      0.450000E-01      0.103948E-01
      0.500000E-01      0.971782E-02
      0.550000E-01      0.901784E-02
      0.600000E-01      0.830592E-02
      0.650000E-01      0.759271E-02
      0.700000E-01      0.688829E-02
      0.750000E-01      0.620190E-02
      0.800000E-01      0.554184E-02
      0.850000E-01      0.491524E-02
      0.900000E-01      0.432803E-02
      0.950000E-01      0.378484E-02
      0.100000          0.328900E-02
      0.105000          0.284253E-02
      0.110000          0.244624E-02
      0.115000          0.209978E-02
      0.120000          0.180177E-02
      0.125000          0.154992E-02
      0.130000          0.134120E-02
      0.135000          0.117198E-02
      0.140000          0.103819E-02
      0.145000          0.935513E-03
      0.150000          0.859473E-03
      0.155000          0.805624E-03
      0.160000          0.769655E-03
      0.165000          0.747495E-03
      0.170000          0.735397E-03
      0.175000          0.730009E-03
      0.180000          0.728413E-03
      0.185000          0.728149E-03
      0.190000          0.727227E-03
      0.195000          0.724113E-03
      0.200000          0.717710E-03
      0.205000          0.707317E-03
      0.210000          0.692592E-03
      0.215000          0.673502E-03
      0.220000          0.650266E-03
      0.225000          0.623308E-03
      0.230000          0.593200E-03
      0.235000          0.560615E-03
      0.240000          0.526280E-03
      0.245000          0.490938E-03
      0.250000          0.455312E-03
      0.255000          0.420078E-03
      0.260000          0.385843E-03
      0.265000          0.353131E-03
      0.270000          0.322373E-03
      0.275000          0.293900E-03
      0.280000          0.267947E-03
      0.285000          0.244655E-03
      0.290000          0.224077E-03
      0.295000          0.206190E-03
      0.300000          0.190901E-03
      0.305000          0.178064E-03
      0.310000          0.167488E-03
      0.315000          0.158949E-03
      0.320000          0.152202E-03
      0.325000          0.146994E-03
      0.330000          0.143066E-03
      0.335000          0.140170E-03
      0.340000          0.138067E-03
      0.345000          0.136538E-03
      0.350000          0.135388E-03
      0.355000          0.134445E-03
      0.360000          0.133565E-03
      0.365000          0.132631E-03
      0.370000          0.131554E-03
      0.375000          0.130273E-03
      0.380000          0.128749E-03
      0.385000          0.126967E-03
      0.390000          0.124932E-03
      0.395000          0.122668E-03
      0.400000          0.120211E-03
      0.405000          0.117609E-03
      0.410000          0.114920E-03
      0.415000          0.112204E-03
      0.420000          0.109525E-03
      0.425000          0.106948E-03
      0.430000          0.104532E-03
      0.435000          0.102334E-03
      0.440000          0.100401E-03
      0.445000          0.987764E-04
      0.450000          0.974897E-04
      0.455000          0.965625E-04
      0.460000          0.960055E-04
      0.465000          0.958185E-04
      0.470000          0.959911E-04
      0.475000          0.965030E-04
      0.480000          0.973250E-04
      0.485000          0.984197E-04
      0.490000          0.997433E-04
      0.495000          0.101246E-03
      0.500000          0.102876E-03
