 I_abs(s)[cm^-1]/c[mg/ml]
       0.00000          0.140544E-01
      0.500000E-02      0.140114E-01
      0.100000E-01      0.138834E-01
      0.150000E-01      0.136724E-01
      0.200000E-01      0.133824E-01
      0.250000E-01      0.130184E-01
      0.300000E-01      0.125866E-01
      0.350000E-01      0.120945E-01
      0.400000E-01      0.115501E-01
      0.450000E-01      0.109625E-01
      0.500000E-01      0.103407E-01
      0.550000E-01      0.969431E-02
      0.600000E-01      0.903270E-02
      0.650000E-01      0.836504E-02
      0.700000E-01      0.770004E-02
      0.750000E-01      0.704580E-02
      0.800000E-01      0.640965E-02
      0.850000E-01      0.579801E-02
      0.900000E-01      0.521633E-02
      0.950000E-01      0.466902E-02
      0.100000          0.415943E-02
      0.105000          0.368985E-02
      0.110000          0.326158E-02
      0.115000          0.287494E-02
      0.120000          0.252941E-02
      0.125000          0.222370E-02
      0.130000          0.195588E-02
      0.135000          0.172349E-02
      0.140000          0.152370E-02
      0.145000          0.135339E-02
      0.150000          0.120929E-02
      0.155000          0.108810E-02
      0.160000          0.986560E-03
      0.165000          0.901580E-03
      0.170000          0.830263E-03
      0.175000          0.769978E-03
      0.180000          0.718397E-03
      0.185000          0.673511E-03
      0.190000          0.633639E-03
      0.195000          0.597422E-03
      0.200000          0.563806E-03
      0.205000          0.532016E-03
      0.210000          0.501525E-03
      0.215000          0.472018E-03
      0.220000          0.443352E-03
      0.225000          0.415521E-03
      0.230000          0.388614E-03
      0.235000          0.362784E-03
      0.240000          0.338218E-03
      0.245000          0.315106E-03
      0.250000          0.293625E-03
      0.255000          0.273921E-03
      0.260000          0.256099E-03
      0.265000          0.240214E-03
      0.270000          0.226272E-03
      0.275000          0.214229E-03
      0.280000          0.203998E-03
      0.285000          0.195451E-03
      0.290000          0.188433E-03
      0.295000          0.182765E-03
      0.300000          0.178257E-03
      0.305000          0.174712E-03
      0.310000          0.171939E-03
      0.315000          0.169755E-03
      0.320000          0.167993E-03
      0.325000          0.166504E-03
      0.330000          0.165162E-03
      0.335000          0.163863E-03
      0.340000          0.162525E-03
      0.345000          0.161089E-03
      0.350000          0.159515E-03
      0.355000          0.157781E-03
      0.360000          0.155880E-03
      0.365000          0.153815E-03
      0.370000          0.151599E-03
      0.375000          0.149250E-03
      0.380000          0.146791E-03
      0.385000          0.144243E-03
      0.390000          0.141629E-03
      0.395000          0.138970E-03
      0.400000          0.136281E-03
      0.405000          0.133578E-03
      0.410000          0.130870E-03
      0.415000          0.128166E-03
      0.420000          0.125469E-03
      0.425000          0.122784E-03
      0.430000          0.120111E-03
      0.435000          0.117451E-03
      0.440000          0.114807E-03
      0.445000          0.112179E-03
      0.450000          0.109572E-03
      0.455000          0.106989E-03
      0.460000          0.104439E-03
      0.465000          0.101928E-03
      0.470000          0.994683E-04
      0.475000          0.970703E-04
      0.480000          0.947469E-04
      0.485000          0.925113E-04
      0.490000          0.903765E-04
      0.495000          0.883556E-04
      0.500000          0.864603E-04
