 I_abs(s)[cm^-1]/c[mg/ml]
       0.00000          0.136435E-01
      0.500000E-02      0.135923E-01
      0.100000E-01      0.134395E-01
      0.150000E-01      0.131888E-01
      0.200000E-01      0.128455E-01
      0.250000E-01      0.124171E-01
      0.300000E-01      0.119127E-01
      0.350000E-01      0.113429E-01
      0.400000E-01      0.107192E-01
      0.450000E-01      0.100540E-01
      0.500000E-01      0.935974E-02
      0.550000E-01      0.864911E-02
      0.600000E-01      0.793422E-02
      0.650000E-01      0.722648E-02
      0.700000E-01      0.653633E-02
      0.750000E-01      0.587295E-02
      0.800000E-01      0.524413E-02
      0.850000E-01      0.465612E-02
      0.900000E-01      0.411361E-02
      0.950000E-01      0.361974E-02
      0.100000          0.317610E-02
      0.105000          0.278292E-02
      0.110000          0.243913E-02
      0.115000          0.214262E-02
      0.120000          0.189037E-02
      0.125000          0.167866E-02
      0.130000          0.150332E-02
      0.135000          0.135990E-02
      0.140000          0.124385E-02
      0.145000          0.115069E-02
      0.150000          0.107615E-02
      0.155000          0.101629E-02
      0.160000          0.967579E-03
      0.165000          0.926926E-03
      0.170000          0.891740E-03
      0.175000          0.859915E-03
      0.180000          0.829819E-03
      0.185000          0.800256E-03
      0.190000          0.770423E-03
      0.195000          0.739853E-03
      0.200000          0.708356E-03
      0.205000          0.675960E-03
      0.210000          0.642852E-03
      0.215000          0.609325E-03
      0.220000          0.575735E-03
      0.225000          0.542454E-03
      0.230000          0.509847E-03
      0.235000          0.478244E-03
      0.240000          0.447925E-03
      0.245000          0.419115E-03
      0.250000          0.391975E-03
      0.255000          0.366608E-03
      0.260000          0.343063E-03
      0.265000          0.321340E-03
      0.270000          0.301403E-03
      0.275000          0.283183E-03
      0.280000          0.266593E-03
      0.285000          0.251533E-03
      0.290000          0.237893E-03
      0.295000          0.225565E-03
      0.300000          0.214443E-03
      0.305000          0.204427E-03
      0.310000          0.195421E-03
      0.315000          0.187338E-03
      0.320000          0.180099E-03
      0.325000          0.173630E-03
      0.330000          0.167861E-03
      0.335000          0.162727E-03
      0.340000          0.158166E-03
      0.345000          0.154118E-03
      0.350000          0.150523E-03
      0.355000          0.147323E-03
      0.360000          0.144461E-03
      0.365000          0.141880E-03
      0.370000          0.139525E-03
      0.375000          0.137344E-03
      0.380000          0.135286E-03
      0.385000          0.133306E-03
      0.390000          0.131363E-03
      0.395000          0.129421E-03
      0.400000          0.127452E-03
      0.405000          0.125432E-03
      0.410000          0.123347E-03
      0.415000          0.121189E-03
      0.420000          0.118959E-03
      0.425000          0.116664E-03
      0.430000          0.114318E-03
      0.435000          0.111941E-03
      0.440000          0.109558E-03
      0.445000          0.107198E-03
      0.450000          0.104892E-03
      0.455000          0.102673E-03
      0.460000          0.100573E-03
      0.465000          0.986243E-04
      0.470000          0.968545E-04
      0.475000          0.952878E-04
      0.480000          0.939433E-04
      0.485000          0.928344E-04
      0.490000          0.919676E-04
      0.495000          0.913429E-04
      0.500000          0.909535E-04
