 I_abs(s)[cm^-1]/c[mg/ml]
       0.00000          0.143263E-01
      0.500000E-02      0.142572E-01
      0.100000E-01      0.140519E-01
      0.150000E-01      0.137174E-01
      0.200000E-01      0.132642E-01
      0.250000E-01      0.127065E-01
      0.300000E-01      0.120614E-01
      0.350000E-01      0.113475E-01
      0.400000E-01      0.105845E-01
      0.450000E-01      0.979201E-02
      0.500000E-01      0.898873E-02
      0.550000E-01      0.819180E-02
      0.600000E-01      0.741610E-02
      0.650000E-01      0.667395E-02
      0.700000E-01      0.597482E-02
      0.750000E-01      0.532537E-02
      0.800000E-01      0.472956E-02
      0.850000E-01      0.418894E-02
      0.900000E-01      0.370306E-02
      0.950000E-01      0.326982E-02
      0.100000          0.288603E-02
      0.105000          0.254776E-02
      0.110000          0.225075E-02
      0.115000          0.199073E-02
      0.120000          0.176363E-02
      0.125000          0.156573E-02
      0.130000          0.139375E-02
      0.135000          0.124482E-02
      0.140000          0.111647E-02
      0.145000          0.100653E-02
      0.150000          0.913082E-03
      0.155000          0.834323E-03
      0.160000          0.768549E-03
      0.165000          0.714088E-03
      0.170000          0.669289E-03
      0.175000          0.632523E-03
      0.180000          0.602213E-03
      0.185000          0.576870E-03
      0.190000          0.555136E-03
      0.195000          0.535820E-03
      0.200000          0.517938E-03
      0.205000          0.500722E-03
      0.210000          0.483630E-03
      0.215000          0.466329E-03
      0.220000          0.448672E-03
      0.225000          0.430660E-03
      0.230000          0.412405E-03
      0.235000          0.394087E-03
      0.240000          0.375914E-03
      0.245000          0.358092E-03
      0.250000          0.340801E-03
      0.255000          0.324181E-03
      0.260000          0.308326E-03
      0.265000          0.293286E-03
      0.270000          0.279077E-03
      0.275000          0.265687E-03
      0.280000          0.253095E-03
      0.285000          0.241272E-03
      0.290000          0.230199E-03
      0.295000          0.219863E-03
      0.300000          0.210265E-03
      0.305000          0.201414E-03
      0.310000          0.193322E-03
      0.315000          0.186002E-03
      0.320000          0.179458E-03
      0.325000          0.173684E-03
      0.330000          0.168656E-03
      0.335000          0.164334E-03
      0.340000          0.160658E-03
      0.345000          0.157557E-03
      0.350000          0.154946E-03
      0.355000          0.152732E-03
      0.360000          0.150824E-03
      0.365000          0.149131E-03
      0.370000          0.147570E-03
      0.375000          0.146069E-03
      0.380000          0.144569E-03
      0.385000          0.143022E-03
      0.390000          0.141395E-03
      0.395000          0.139667E-03
      0.400000          0.137828E-03
      0.405000          0.135875E-03
      0.410000          0.133815E-03
      0.415000          0.131659E-03
      0.420000          0.129423E-03
      0.425000          0.127123E-03
      0.430000          0.124780E-03
      0.435000          0.122414E-03
      0.440000          0.120044E-03
      0.445000          0.117690E-03
      0.450000          0.115370E-03
      0.455000          0.113100E-03
      0.460000          0.110896E-03
      0.465000          0.108769E-03
      0.470000          0.106729E-03
      0.475000          0.104782E-03
      0.480000          0.102932E-03
      0.485000          0.101181E-03
      0.490000          0.995257E-04
      0.495000          0.979630E-04
      0.500000          0.964863E-04
