 I_abs(s)[cm^-1]/c[mg/ml]
       0.00000          0.142320E-01
      0.500000E-02      0.141813E-01
      0.100000E-01      0.140301E-01
      0.150000E-01      0.137815E-01
      0.200000E-01      0.134405E-01
      0.250000E-01      0.130138E-01
      0.300000E-01      0.125097E-01
      0.350000E-01      0.119379E-01
      0.400000E-01      0.113090E-01
      0.450000E-01      0.106346E-01
      0.500000E-01      0.992641E-02
      0.550000E-01      0.919656E-02
      0.600000E-01      0.845681E-02
      0.650000E-01      0.771848E-02
      0.700000E-01      0.699211E-02
      0.750000E-01      0.628729E-02
      0.800000E-01      0.561242E-02
      0.850000E-01      0.497459E-02
      0.900000E-01      0.437952E-02
      0.950000E-01      0.383145E-02
      0.100000          0.333323E-02
      0.105000          0.288630E-02
      0.110000          0.249079E-02
      0.115000          0.214569E-02
      0.120000          0.184895E-02
      0.125000          0.159767E-02
      0.130000          0.138825E-02
      0.135000          0.121663E-02
      0.140000          0.107841E-02
      0.145000          0.969060E-03
      0.150000          0.884063E-03
      0.155000          0.819045E-03
      0.160000          0.769899E-03
      0.165000          0.732874E-03
      0.170000          0.704638E-03
      0.175000          0.682325E-03
      0.180000          0.663549E-03
      0.185000          0.646403E-03
      0.190000          0.629441E-03
      0.195000          0.611643E-03
      0.200000          0.592368E-03
      0.205000          0.571299E-03
      0.210000          0.548391E-03
      0.215000          0.523806E-03
      0.220000          0.497855E-03
      0.225000          0.470953E-03
      0.230000          0.443561E-03
      0.235000          0.416154E-03
      0.240000          0.389182E-03
      0.245000          0.363048E-03
      0.250000          0.338092E-03
      0.255000          0.314578E-03
      0.260000          0.292696E-03
      0.265000          0.272557E-03
      0.270000          0.254204E-03
      0.275000          0.237623E-03
      0.280000          0.222748E-03
      0.285000          0.209478E-03
      0.290000          0.197687E-03
      0.295000          0.187236E-03
      0.300000          0.177980E-03
      0.305000          0.169780E-03
      0.310000          0.162506E-03
      0.315000          0.156042E-03
      0.320000          0.150286E-03
      0.325000          0.145155E-03
      0.330000          0.140578E-03
      0.335000          0.136499E-03
      0.340000          0.132873E-03
      0.345000          0.129660E-03
      0.350000          0.126829E-03
      0.355000          0.124348E-03
      0.360000          0.122184E-03
      0.365000          0.120307E-03
      0.370000          0.118679E-03
      0.375000          0.117265E-03
      0.380000          0.116023E-03
      0.385000          0.114912E-03
      0.390000          0.113890E-03
      0.395000          0.112918E-03
      0.400000          0.111957E-03
      0.405000          0.110975E-03
      0.410000          0.109945E-03
      0.415000          0.108847E-03
      0.420000          0.107666E-03
      0.425000          0.106398E-03
      0.430000          0.105043E-03
      0.435000          0.103611E-03
      0.440000          0.102116E-03
      0.445000          0.100575E-03
      0.450000          0.990114E-04
      0.455000          0.974476E-04
      0.460000          0.959074E-04
      0.465000          0.944129E-04
      0.470000          0.929837E-04
      0.475000          0.916360E-04
      0.480000          0.903818E-04
      0.485000          0.892285E-04
      0.490000          0.881790E-04
      0.495000          0.872318E-04
      0.500000          0.863812E-04
