 I_abs(s)[cm^-1]/c[mg/ml]
       0.00000          0.144604E-01
      0.500000E-02      0.143955E-01
      0.100000E-01      0.142026E-01
      0.150000E-01      0.138872E-01
      0.200000E-01      0.134580E-01
      0.250000E-01      0.129268E-01
      0.300000E-01      0.123077E-01
      0.350000E-01      0.116168E-01
      0.400000E-01      0.108711E-01
      0.450000E-01      0.100881E-01
      0.500000E-01      0.928514E-02
      0.550000E-01      0.847862E-02
      0.600000E-01      0.768354E-02
      0.650000E-01      0.691308E-02
      0.700000E-01      0.617829E-02
      0.750000E-01      0.548787E-02
      0.800000E-01      0.484819E-02
      0.850000E-01      0.426329E-02
      0.900000E-01      0.373509E-02
      0.950000E-01      0.326357E-02
      0.100000          0.284715E-02
      0.105000          0.248296E-02
      0.110000          0.216721E-02
      0.115000          0.189548E-02
      0.120000          0.166306E-02
      0.125000          0.146517E-02
      0.130000          0.129720E-02
      0.135000          0.115485E-02
      0.140000          0.103420E-02
      0.145000          0.931817E-03
      0.150000          0.844757E-03
      0.155000          0.770526E-03
      0.160000          0.707058E-03
      0.165000          0.652662E-03
      0.170000          0.605952E-03
      0.175000          0.565796E-03
      0.180000          0.531253E-03
      0.185000          0.501528E-03
      0.190000          0.475930E-03
      0.195000          0.453848E-03
      0.200000          0.434730E-03
      0.205000          0.418070E-03
      0.210000          0.403405E-03
      0.215000          0.390312E-03
      0.220000          0.378414E-03
      0.225000          0.367380E-03
      0.230000          0.356927E-03
      0.235000          0.346826E-03
      0.240000          0.336897E-03
      0.245000          0.327013E-03
      0.250000          0.317095E-03
      0.255000          0.307106E-03
      0.260000          0.297048E-03
      0.265000          0.286955E-03
      0.270000          0.276885E-03
      0.275000          0.266913E-03
      0.280000          0.257121E-03
      0.285000          0.247597E-03
      0.290000          0.238422E-03
      0.295000          0.229667E-03
      0.300000          0.221389E-03
      0.305000          0.213628E-03
      0.310000          0.206403E-03
      0.315000          0.199716E-03
      0.320000          0.193549E-03
      0.325000          0.187870E-03
      0.330000          0.182632E-03
      0.335000          0.177785E-03
      0.340000          0.173273E-03
      0.345000          0.169039E-03
      0.350000          0.165036E-03
      0.355000          0.161220E-03
      0.360000          0.157560E-03
      0.365000          0.154035E-03
      0.370000          0.150635E-03
      0.375000          0.147360E-03
      0.380000          0.144217E-03
      0.385000          0.141220E-03
      0.390000          0.138383E-03
      0.395000          0.135721E-03
      0.400000          0.133247E-03
      0.405000          0.130970E-03
      0.410000          0.128891E-03
      0.415000          0.127007E-03
      0.420000          0.125310E-03
      0.425000          0.123783E-03
      0.430000          0.122409E-03
      0.435000          0.121165E-03
      0.440000          0.120029E-03
      0.445000          0.118975E-03
      0.450000          0.117982E-03
      0.455000          0.117029E-03
      0.460000          0.116096E-03
      0.465000          0.115166E-03
      0.470000          0.114226E-03
      0.475000          0.113262E-03
      0.480000          0.112263E-03
      0.485000          0.111220E-03
      0.490000          0.110126E-03
      0.495000          0.108972E-03
      0.500000          0.107754E-03
