 I_abs(s)[cm^-1]/c[mg/ml]
       0.00000          0.141693E-01
      0.500000E-02      0.141054E-01
      0.100000E-01      0.139155E-01
      0.150000E-01      0.136046E-01
      0.200000E-01      0.131809E-01
      0.250000E-01      0.126554E-01
      0.300000E-01      0.120414E-01
      0.350000E-01      0.113541E-01
      0.400000E-01      0.106101E-01
      0.450000E-01      0.982645E-02
      0.500000E-01      0.902030E-02
      0.550000E-01      0.820829E-02
      0.600000E-01      0.740599E-02
      0.650000E-01      0.662741E-02
      0.700000E-01      0.588467E-02
      0.750000E-01      0.518777E-02
      0.800000E-01      0.454436E-02
      0.850000E-01      0.395977E-02
      0.900000E-01      0.343702E-02
      0.950000E-01      0.297699E-02
      0.100000          0.257865E-02
      0.105000          0.223932E-02
      0.110000          0.195497E-02
      0.115000          0.172061E-02
      0.120000          0.153055E-02
      0.125000          0.137880E-02
      0.130000          0.125929E-02
      0.135000          0.116613E-02
      0.140000          0.109384E-02
      0.145000          0.103746E-02
      0.150000          0.992676E-03
      0.155000          0.955840E-03
      0.160000          0.924002E-03
      0.165000          0.894868E-03
      0.170000          0.866747E-03
      0.175000          0.838480E-03
      0.180000          0.809348E-03
      0.185000          0.778990E-03
      0.190000          0.747312E-03
      0.195000          0.714416E-03
      0.200000          0.680523E-03
      0.205000          0.645928E-03
      0.210000          0.610953E-03
      0.215000          0.575921E-03
      0.220000          0.541139E-03
      0.225000          0.506885E-03
      0.230000          0.473412E-03
      0.235000          0.440945E-03
      0.240000          0.409689E-03
      0.245000          0.379830E-03
      0.250000          0.351539E-03
      0.255000          0.324977E-03
      0.260000          0.300289E-03
      0.265000          0.277602E-03
      0.270000          0.257024E-03
      0.275000          0.238633E-03
      0.280000          0.222476E-03
      0.285000          0.208557E-03
      0.290000          0.196843E-03
      0.295000          0.187251E-03
      0.300000          0.179657E-03
      0.305000          0.173894E-03
      0.310000          0.169760E-03
      0.315000          0.167023E-03
      0.320000          0.165431E-03
      0.325000          0.164722E-03
      0.330000          0.164633E-03
      0.335000          0.164911E-03
      0.340000          0.165324E-03
      0.345000          0.165664E-03
      0.350000          0.165758E-03
      0.355000          0.165468E-03
      0.360000          0.164698E-03
      0.365000          0.163388E-03
      0.370000          0.161517E-03
      0.375000          0.159097E-03
      0.380000          0.156168E-03
      0.385000          0.152795E-03
      0.390000          0.149058E-03
      0.395000          0.145050E-03
      0.400000          0.140866E-03
      0.405000          0.136601E-03
      0.410000          0.132346E-03
      0.415000          0.128181E-03
      0.420000          0.124174E-03
      0.425000          0.120379E-03
      0.430000          0.116839E-03
      0.435000          0.113579E-03
      0.440000          0.110614E-03
      0.445000          0.107948E-03
      0.450000          0.105577E-03
      0.455000          0.103489E-03
      0.460000          0.101669E-03
      0.465000          0.100100E-03
      0.470000          0.987650E-04
      0.475000          0.976460E-04
      0.480000          0.967286E-04
      0.485000          0.959994E-04
      0.490000          0.954464E-04
      0.495000          0.950589E-04
      0.500000          0.948255E-04
