 I_abs(s)[cm^-1]/c[mg/ml]
       0.00000          0.136651E-01
      0.500000E-02      0.135544E-01
      0.100000E-01      0.132284E-01
      0.150000E-01      0.127053E-01
      0.200000E-01      0.120130E-01
      0.250000E-01      0.111875E-01
      0.300000E-01      0.102696E-01
      0.350000E-01      0.930117E-02
      0.400000E-01      0.832272E-02
      0.450000E-01      0.737006E-02
      0.500000E-01      0.647240E-02
      0.550000E-01      0.565104E-02
      0.600000E-01      0.491897E-02
      0.650000E-01      0.428128E-02
      0.700000E-01      0.373623E-02
      0.750000E-01      0.327691E-02
      0.800000E-01      0.289294E-02
      0.850000E-01      0.257237E-02
      0.900000E-01      0.230317E-02
      0.950000E-01      0.207452E-02
      0.100000          0.187752E-02
      0.105000          0.170558E-02
      0.110000          0.155426E-02
      0.115000          0.142093E-02
      0.120000          0.130423E-02
      0.125000          0.120343E-02
      0.130000          0.111789E-02
      0.135000          0.104670E-02
      0.140000          0.988456E-03
      0.145000          0.941235E-03
      0.150000          0.902723E-03
      0.155000          0.870458E-03
      0.160000          0.842090E-03
      0.165000          0.815626E-03
      0.170000          0.789605E-03
      0.175000          0.763170E-03
      0.180000          0.736042E-03
      0.185000          0.708405E-03
      0.190000          0.680741E-03
      0.195000          0.653635E-03
      0.200000          0.627612E-03
      0.205000          0.603003E-03
      0.210000          0.579887E-03
      0.215000          0.558092E-03
      0.220000          0.537247E-03
      0.225000          0.516885E-03
      0.230000          0.496540E-03
      0.235000          0.475852E-03
      0.240000          0.454628E-03
      0.245000          0.432879E-03
      0.250000          0.410803E-03
      0.255000          0.388741E-03
      0.260000          0.367108E-03
      0.265000          0.346314E-03
      0.270000          0.326703E-03
      0.275000          0.308497E-03
      0.280000          0.291784E-03
      0.285000          0.276517E-03
      0.290000          0.262551E-03
      0.295000          0.249683E-03
      0.300000          0.237709E-03
      0.305000          0.226461E-03
      0.310000          0.215843E-03
      0.315000          0.205839E-03
      0.320000          0.196506E-03
      0.325000          0.187950E-03
      0.330000          0.180294E-03
      0.335000          0.173640E-03
      0.340000          0.168041E-03
      0.345000          0.163473E-03
      0.350000          0.159840E-03
      0.355000          0.156970E-03
      0.360000          0.154644E-03
      0.365000          0.152620E-03
      0.370000          0.150662E-03
      0.375000          0.148572E-03
      0.380000          0.146208E-03
      0.385000          0.143492E-03
      0.390000          0.140414E-03
      0.395000          0.137020E-03
      0.400000          0.133396E-03
      0.405000          0.129648E-03
      0.410000          0.125883E-03
      0.415000          0.122197E-03
      0.420000          0.118658E-03
      0.425000          0.115312E-03
      0.430000          0.112178E-03
      0.435000          0.109259E-03
      0.440000          0.106552E-03
      0.445000          0.104051E-03
      0.450000          0.101760E-03
      0.455000          0.996918E-04
      0.460000          0.978659E-04
      0.465000          0.963058E-04
      0.470000          0.950313E-04
      0.475000          0.940508E-04
      0.480000          0.933557E-04
      0.485000          0.929164E-04
      0.490000          0.926829E-04
      0.495000          0.925879E-04
      0.500000          0.925535E-04
