 I_abs(s)[cm^-1]/c[mg/ml]
       0.00000          0.144051E-01
      0.500000E-02      0.143474E-01
      0.100000E-01      0.141754E-01
      0.150000E-01      0.138933E-01
      0.200000E-01      0.135076E-01
      0.250000E-01      0.130272E-01
      0.300000E-01      0.124628E-01
      0.350000E-01      0.118268E-01
      0.400000E-01      0.111330E-01
      0.450000E-01      0.103957E-01
      0.500000E-01      0.962934E-02
      0.550000E-01      0.884853E-02
      0.600000E-01      0.806706E-02
      0.650000E-01      0.729777E-02
      0.700000E-01      0.655220E-02
      0.750000E-01      0.584032E-02
      0.800000E-01      0.517035E-02
      0.850000E-01      0.454866E-02
      0.900000E-01      0.397974E-02
      0.950000E-01      0.346621E-02
      0.100000          0.300898E-02
      0.105000          0.260737E-02
      0.110000          0.225935E-02
      0.115000          0.196175E-02
      0.120000          0.171051E-02
      0.125000          0.150097E-02
      0.130000          0.132809E-02
      0.135000          0.118672E-02
      0.140000          0.107177E-02
      0.145000          0.978400E-03
      0.150000          0.902185E-03
      0.155000          0.839182E-03
      0.160000          0.786012E-03
      0.165000          0.739885E-03
      0.170000          0.698595E-03
      0.175000          0.660491E-03
      0.180000          0.624422E-03
      0.185000          0.589671E-03
      0.190000          0.555877E-03
      0.195000          0.522956E-03
      0.200000          0.491018E-03
      0.205000          0.460296E-03
      0.210000          0.431084E-03
      0.215000          0.403675E-03
      0.220000          0.378329E-03
      0.225000          0.355237E-03
      0.230000          0.334509E-03
      0.235000          0.316163E-03
      0.240000          0.300134E-03
      0.245000          0.286277E-03
      0.250000          0.274388E-03
      0.255000          0.264218E-03
      0.260000          0.255495E-03
      0.265000          0.247938E-03
      0.270000          0.241279E-03
      0.275000          0.235271E-03
      0.280000          0.229701E-03
      0.285000          0.224396E-03
      0.290000          0.219224E-03
      0.295000          0.214099E-03
      0.300000          0.208969E-03
      0.305000          0.203818E-03
      0.310000          0.198659E-03
      0.315000          0.193520E-03
      0.320000          0.188447E-03
      0.325000          0.183487E-03
      0.330000          0.178689E-03
      0.335000          0.174095E-03
      0.340000          0.169740E-03
      0.345000          0.165646E-03
      0.350000          0.161823E-03
      0.355000          0.158268E-03
      0.360000          0.154970E-03
      0.365000          0.151905E-03
      0.370000          0.149044E-03
      0.375000          0.146356E-03
      0.380000          0.143805E-03
      0.385000          0.141358E-03
      0.390000          0.138985E-03
      0.395000          0.136659E-03
      0.400000          0.134363E-03
      0.405000          0.132082E-03
      0.410000          0.129811E-03
      0.415000          0.127551E-03
      0.420000          0.125310E-03
      0.425000          0.123099E-03
      0.430000          0.120935E-03
      0.435000          0.118836E-03
      0.440000          0.116825E-03
      0.445000          0.114919E-03
      0.450000          0.113139E-03
      0.455000          0.111501E-03
      0.460000          0.110018E-03
      0.465000          0.108699E-03
      0.470000          0.107548E-03
      0.475000          0.106564E-03
      0.480000          0.105742E-03
      0.485000          0.105071E-03
      0.490000          0.104535E-03
      0.495000          0.104117E-03
      0.500000          0.103794E-03
