 I_abs(s)[cm^-1]/c[mg/ml]
       0.00000          0.146350E-01
      0.500000E-02      0.145684E-01
      0.100000E-01      0.143706E-01
      0.150000E-01      0.140472E-01
      0.200000E-01      0.136070E-01
      0.250000E-01      0.130619E-01
      0.300000E-01      0.124265E-01
      0.350000E-01      0.117170E-01
      0.400000E-01      0.109508E-01
      0.450000E-01      0.101459E-01
      0.500000E-01      0.931998E-02
      0.550000E-01      0.848993E-02
      0.600000E-01      0.767119E-02
      0.650000E-01      0.687739E-02
      0.700000E-01      0.611999E-02
      0.750000E-01      0.540807E-02
      0.800000E-01      0.474831E-02
      0.850000E-01      0.414500E-02
      0.900000E-01      0.360026E-02
      0.950000E-01      0.311422E-02
      0.100000          0.268537E-02
      0.105000          0.231090E-02
      0.110000          0.198702E-02
      0.115000          0.170933E-02
      0.120000          0.147309E-02
      0.125000          0.127354E-02
      0.130000          0.110605E-02
      0.135000          0.966320E-03
      0.140000          0.850444E-03
      0.145000          0.754969E-03
      0.150000          0.676893E-03
      0.155000          0.613637E-03
      0.160000          0.562988E-03
      0.165000          0.523038E-03
      0.170000          0.492117E-03
      0.175000          0.468734E-03
      0.180000          0.451530E-03
      0.185000          0.439246E-03
      0.190000          0.430705E-03
      0.195000          0.424816E-03
      0.200000          0.420577E-03
      0.205000          0.417098E-03
      0.210000          0.413621E-03
      0.215000          0.409537E-03
      0.220000          0.404403E-03
      0.225000          0.397949E-03
      0.230000          0.390074E-03
      0.235000          0.380834E-03
      0.240000          0.370419E-03
      0.245000          0.359124E-03
      0.250000          0.347312E-03
      0.255000          0.335381E-03
      0.260000          0.323726E-03
      0.265000          0.312702E-03
      0.270000          0.302606E-03
      0.275000          0.293651E-03
      0.280000          0.285958E-03
      0.285000          0.279555E-03
      0.290000          0.274379E-03
      0.295000          0.270296E-03
      0.300000          0.267109E-03
      0.305000          0.264587E-03
      0.310000          0.262479E-03
      0.315000          0.260542E-03
      0.320000          0.258550E-03
      0.325000          0.256316E-03
      0.330000          0.253695E-03
      0.335000          0.250593E-03
      0.340000          0.246965E-03
      0.345000          0.242812E-03
      0.350000          0.238173E-03
      0.355000          0.233117E-03
      0.360000          0.227732E-03
      0.365000          0.222116E-03
      0.370000          0.216365E-03
      0.375000          0.210568E-03
      0.380000          0.204802E-03
      0.385000          0.199125E-03
      0.390000          0.193577E-03
      0.395000          0.188182E-03
      0.400000          0.182947E-03
      0.405000          0.177870E-03
      0.410000          0.172938E-03
      0.415000          0.168136E-03
      0.420000          0.163451E-03
      0.425000          0.158868E-03
      0.430000          0.154383E-03
      0.435000          0.149993E-03
      0.440000          0.145705E-03
      0.445000          0.141530E-03
      0.450000          0.137482E-03
      0.455000          0.133580E-03
      0.460000          0.129841E-03
      0.465000          0.126282E-03
      0.470000          0.122916E-03
      0.475000          0.119753E-03
      0.480000          0.116797E-03
      0.485000          0.114049E-03
      0.490000          0.111503E-03
      0.495000          0.109152E-03
      0.500000          0.106986E-03
