 I_abs(s)[cm^-1]/c[mg/ml]
       0.00000          0.143263E-01
      0.500000E-02      0.142650E-01
      0.100000E-01      0.140829E-01
      0.150000E-01      0.137855E-01
      0.200000E-01      0.133815E-01
      0.250000E-01      0.128824E-01
      0.300000E-01      0.123023E-01
      0.350000E-01      0.116568E-01
      0.400000E-01      0.109626E-01
      0.450000E-01      0.102364E-01
      0.500000E-01      0.949477E-02
      0.550000E-01      0.875305E-02
      0.600000E-01      0.802498E-02
      0.650000E-01      0.732233E-02
      0.700000E-01      0.665455E-02
      0.750000E-01      0.602872E-02
      0.800000E-01      0.544948E-02
      0.850000E-01      0.491923E-02
      0.900000E-01      0.443831E-02
      0.950000E-01      0.400538E-02
      0.100000          0.361772E-02
      0.105000          0.327166E-02
      0.110000          0.296294E-02
      0.115000          0.268709E-02
      0.120000          0.243969E-02
      0.125000          0.221662E-02
      0.130000          0.201428E-02
      0.135000          0.182961E-02
      0.140000          0.166020E-02
      0.145000          0.150420E-02
      0.150000          0.136033E-02
      0.155000          0.122771E-02
      0.160000          0.110582E-02
      0.165000          0.994312E-03
      0.170000          0.892956E-03
      0.175000          0.801530E-03
      0.180000          0.719749E-03
      0.185000          0.647228E-03
      0.190000          0.583460E-03
      0.195000          0.527819E-03
      0.200000          0.479580E-03
      0.205000          0.437956E-03
      0.210000          0.402131E-03
      0.215000          0.371306E-03
      0.220000          0.344729E-03
      0.225000          0.321728E-03
      0.230000          0.301728E-03
      0.235000          0.284256E-03
      0.240000          0.268943E-03
      0.245000          0.255513E-03
      0.250000          0.243762E-03
      0.255000          0.233544E-03
      0.260000          0.224744E-03
      0.265000          0.217259E-03
      0.270000          0.210984E-03
      0.275000          0.205799E-03
      0.280000          0.201562E-03
      0.285000          0.198110E-03
      0.290000          0.195259E-03
      0.295000          0.192816E-03
      0.300000          0.190585E-03
      0.305000          0.188381E-03
      0.310000          0.186036E-03
      0.315000          0.183414E-03
      0.320000          0.180411E-03
      0.325000          0.176964E-03
      0.330000          0.173048E-03
      0.335000          0.168674E-03
      0.340000          0.163888E-03
      0.345000          0.158759E-03
      0.350000          0.153376E-03
      0.355000          0.147837E-03
      0.360000          0.142243E-03
      0.365000          0.136690E-03
      0.370000          0.131267E-03
      0.375000          0.126047E-03
      0.380000          0.121086E-03
      0.385000          0.116427E-03
      0.390000          0.112092E-03
      0.395000          0.108090E-03
      0.400000          0.104420E-03
      0.405000          0.101069E-03
      0.410000          0.980178E-04
      0.415000          0.952441E-04
      0.420000          0.927252E-04
      0.425000          0.904396E-04
      0.430000          0.883691E-04
      0.435000          0.864995E-04
      0.440000          0.848212E-04
      0.445000          0.833293E-04
      0.450000          0.820227E-04
      0.455000          0.809034E-04
      0.460000          0.799749E-04
      0.465000          0.792413E-04
      0.470000          0.787054E-04
      0.475000          0.783678E-04
      0.480000          0.782252E-04
      0.485000          0.782697E-04
      0.490000          0.784883E-04
      0.495000          0.788621E-04
      0.500000          0.793670E-04
