 I_abs(s)[cm^-1]/c[mg/ml]
       0.00000          0.144209E-01
      0.500000E-02      0.143483E-01
      0.100000E-01      0.141329E-01
      0.150000E-01      0.137820E-01
      0.200000E-01      0.133071E-01
      0.250000E-01      0.127237E-01
      0.300000E-01      0.120500E-01
      0.350000E-01      0.113064E-01
      0.400000E-01      0.105139E-01
      0.450000E-01      0.969381E-02
      0.500000E-01      0.886614E-02
      0.550000E-01      0.804924E-02
      0.600000E-01      0.725891E-02
      0.650000E-01      0.650808E-02
      0.700000E-01      0.580647E-02
      0.750000E-01      0.516068E-02
      0.800000E-01      0.457424E-02
      0.850000E-01      0.404801E-02
      0.900000E-01      0.358056E-02
      0.950000E-01      0.316867E-02
      0.100000          0.280791E-02
      0.105000          0.249308E-02
      0.110000          0.221869E-02
      0.115000          0.197936E-02
      0.120000          0.177011E-02
      0.125000          0.158650E-02
      0.130000          0.142480E-02
      0.135000          0.128193E-02
      0.140000          0.115548E-02
      0.145000          0.104357E-02
      0.150000          0.944737E-03
      0.155000          0.857830E-03
      0.160000          0.781860E-03
      0.165000          0.715925E-03
      0.170000          0.659133E-03
      0.175000          0.610564E-03
      0.180000          0.569259E-03
      0.185000          0.534227E-03
      0.190000          0.504476E-03
      0.195000          0.479045E-03
      0.200000          0.457043E-03
      0.205000          0.437676E-03
      0.210000          0.420277E-03
      0.215000          0.404311E-03
      0.220000          0.389377E-03
      0.225000          0.375198E-03
      0.230000          0.361602E-03
      0.235000          0.348496E-03
      0.240000          0.335844E-03
      0.245000          0.323643E-03
      0.250000          0.311901E-03
      0.255000          0.300624E-03
      0.260000          0.289810E-03
      0.265000          0.279440E-03
      0.270000          0.269487E-03
      0.275000          0.259913E-03
      0.280000          0.250683E-03
      0.285000          0.241764E-03
      0.290000          0.233137E-03
      0.295000          0.224793E-03
      0.300000          0.216741E-03
      0.305000          0.209004E-03
      0.310000          0.201611E-03
      0.315000          0.194600E-03
      0.320000          0.188007E-03
      0.325000          0.181864E-03
      0.330000          0.176192E-03
      0.335000          0.171000E-03
      0.340000          0.166286E-03
      0.345000          0.162030E-03
      0.350000          0.158202E-03
      0.355000          0.154763E-03
      0.360000          0.151665E-03
      0.365000          0.148858E-03
      0.370000          0.146293E-03
      0.375000          0.143920E-03
      0.380000          0.141697E-03
      0.385000          0.139585E-03
      0.390000          0.137555E-03
      0.395000          0.135582E-03
      0.400000          0.133647E-03
      0.405000          0.131740E-03
      0.410000          0.129852E-03
      0.415000          0.127980E-03
      0.420000          0.126124E-03
      0.425000          0.124286E-03
      0.430000          0.122467E-03
      0.435000          0.120672E-03
      0.440000          0.118904E-03
      0.445000          0.117165E-03
      0.450000          0.115456E-03
      0.455000          0.113776E-03
      0.460000          0.112123E-03
      0.465000          0.110490E-03
      0.470000          0.108869E-03
      0.475000          0.107251E-03
      0.480000          0.105623E-03
      0.485000          0.103975E-03
      0.490000          0.102294E-03
      0.495000          0.100571E-03
      0.500000          0.987992E-04
