 I_abs(s)[cm^-1]/c[mg/ml]
       0.00000          0.139976E-01
      0.500000E-02      0.139298E-01
      0.100000E-01      0.137285E-01
      0.150000E-01      0.133998E-01
      0.200000E-01      0.129535E-01
      0.250000E-01      0.124027E-01
      0.300000E-01      0.117631E-01
      0.350000E-01      0.110525E-01
      0.400000E-01      0.102896E-01
      0.450000E-01      0.949359E-02
      0.500000E-01      0.868319E-02
      0.550000E-01      0.787593E-02
      0.600000E-01      0.708758E-02
      0.650000E-01      0.633170E-02
      0.700000E-01      0.561926E-02
      0.750000E-01      0.495853E-02
      0.800000E-01      0.435500E-02
      0.850000E-01      0.381160E-02
      0.900000E-01      0.332884E-02
      0.950000E-01      0.290523E-02
      0.100000          0.253762E-02
      0.105000          0.222167E-02
      0.110000          0.195222E-02
      0.115000          0.172376E-02
      0.120000          0.153072E-02
      0.125000          0.136779E-02
      0.130000          0.123009E-02
      0.135000          0.111337E-02
      0.140000          0.101401E-02
      0.145000          0.929081E-03
      0.150000          0.856237E-03
      0.155000          0.793675E-03
      0.160000          0.740010E-03
      0.165000          0.694165E-03
      0.170000          0.655260E-03
      0.175000          0.622524E-03
      0.180000          0.595218E-03
      0.185000          0.572594E-03
      0.190000          0.553870E-03
      0.195000          0.538232E-03
      0.200000          0.524855E-03
      0.205000          0.512932E-03
      0.210000          0.501710E-03
      0.215000          0.490531E-03
      0.220000          0.478858E-03
      0.225000          0.466302E-03
      0.230000          0.452626E-03
      0.235000          0.437749E-03
      0.240000          0.421729E-03
      0.245000          0.404739E-03
      0.250000          0.387039E-03
      0.255000          0.368939E-03
      0.260000          0.350769E-03
      0.265000          0.332846E-03
      0.270000          0.315448E-03
      0.275000          0.298799E-03
      0.280000          0.283057E-03
      0.285000          0.268310E-03
      0.290000          0.254585E-03
      0.295000          0.241855E-03
      0.300000          0.230054E-03
      0.305000          0.219095E-03
      0.310000          0.208880E-03
      0.315000          0.199319E-03
      0.320000          0.190337E-03
      0.325000          0.181885E-03
      0.330000          0.173934E-03
      0.335000          0.166485E-03
      0.340000          0.159553E-03
      0.345000          0.153169E-03
      0.350000          0.147365E-03
      0.355000          0.142172E-03
      0.360000          0.137606E-03
      0.365000          0.133669E-03
      0.370000          0.130339E-03
      0.375000          0.127575E-03
      0.380000          0.125313E-03
      0.385000          0.123476E-03
      0.390000          0.121973E-03
      0.395000          0.120711E-03
      0.400000          0.119597E-03
      0.405000          0.118547E-03
      0.410000          0.117492E-03
      0.415000          0.116380E-03
      0.420000          0.115179E-03
      0.425000          0.113878E-03
      0.430000          0.112484E-03
      0.435000          0.111019E-03
      0.440000          0.109518E-03
      0.445000          0.108023E-03
      0.450000          0.106578E-03
      0.455000          0.105221E-03
      0.460000          0.103988E-03
      0.465000          0.102901E-03
      0.470000          0.101969E-03
      0.475000          0.101192E-03
      0.480000          0.100555E-03
      0.485000          0.100032E-03
      0.490000          0.995889E-04
      0.495000          0.991875E-04
      0.500000          0.987867E-04
