 I_abs(s)[cm^-1]/c[mg/ml]
       0.00000          0.142791E-01
      0.500000E-02      0.142145E-01
      0.100000E-01      0.140227E-01
      0.150000E-01      0.137092E-01
      0.200000E-01      0.132831E-01
      0.250000E-01      0.127568E-01
      0.300000E-01      0.121446E-01
      0.350000E-01      0.114632E-01
      0.400000E-01      0.107299E-01
      0.450000E-01      0.996252E-02
      0.500000E-01      0.917862E-02
      0.550000E-01      0.839457E-02
      0.600000E-01      0.762520E-02
      0.650000E-01      0.688329E-02
      0.700000E-01      0.617935E-02
      0.750000E-01      0.552137E-02
      0.800000E-01      0.491487E-02
      0.850000E-01      0.436296E-02
      0.900000E-01      0.386659E-02
      0.950000E-01      0.342480E-02
      0.100000          0.303514E-02
      0.105000          0.269396E-02
      0.110000          0.239686E-02
      0.115000          0.213900E-02
      0.120000          0.191544E-02
      0.125000          0.172138E-02
      0.130000          0.155238E-02
      0.135000          0.140448E-02
      0.140000          0.127429E-02
      0.145000          0.115898E-02
      0.150000          0.105630E-02
      0.155000          0.964486E-03
      0.160000          0.882197E-03
      0.165000          0.808426E-03
      0.170000          0.742405E-03
      0.175000          0.683525E-03
      0.180000          0.631266E-03
      0.185000          0.585143E-03
      0.190000          0.544669E-03
      0.195000          0.509333E-03
      0.200000          0.478599E-03
      0.205000          0.451908E-03
      0.210000          0.428694E-03
      0.215000          0.408397E-03
      0.220000          0.390487E-03
      0.225000          0.374478E-03
      0.230000          0.359943E-03
      0.235000          0.346520E-03
      0.240000          0.333922E-03
      0.245000          0.321928E-03
      0.250000          0.310386E-03
      0.255000          0.299200E-03
      0.260000          0.288322E-03
      0.265000          0.277739E-03
      0.270000          0.267465E-03
      0.275000          0.257529E-03
      0.280000          0.247965E-03
      0.285000          0.238807E-03
      0.290000          0.230086E-03
      0.295000          0.221819E-03
      0.300000          0.214018E-03
      0.305000          0.206679E-03
      0.310000          0.199792E-03
      0.315000          0.193336E-03
      0.320000          0.187282E-03
      0.325000          0.181600E-03
      0.330000          0.176253E-03
      0.335000          0.171205E-03
      0.340000          0.166418E-03
      0.345000          0.161859E-03
      0.350000          0.157494E-03
      0.355000          0.153293E-03
      0.360000          0.149230E-03
      0.365000          0.145283E-03
      0.370000          0.141432E-03
      0.375000          0.137661E-03
      0.380000          0.133960E-03
      0.385000          0.130321E-03
      0.390000          0.126741E-03
      0.395000          0.123219E-03
      0.400000          0.119761E-03
      0.405000          0.116375E-03
      0.410000          0.113073E-03
      0.415000          0.109871E-03
      0.420000          0.106788E-03
      0.425000          0.103846E-03
      0.430000          0.101066E-03
      0.435000          0.984735E-04
      0.440000          0.960895E-04
      0.445000          0.939348E-04
      0.450000          0.920267E-04
      0.455000          0.903781E-04
      0.460000          0.889965E-04
      0.465000          0.878834E-04
      0.470000          0.870340E-04
      0.475000          0.864371E-04
      0.480000          0.860752E-04
      0.485000          0.859256E-04
      0.490000          0.859612E-04
      0.495000          0.861515E-04
      0.500000          0.864640E-04
