 I_abs(s)[cm^-1]/c[mg/ml]
       0.00000          0.138734E-01
      0.500000E-02      0.137689E-01
      0.100000E-01      0.134602E-01
      0.150000E-01      0.129616E-01
      0.200000E-01      0.122959E-01
      0.250000E-01      0.114924E-01
      0.300000E-01      0.105851E-01
      0.350000E-01      0.961050E-02
      0.400000E-01      0.860505E-02
      0.450000E-01      0.760306E-02
      0.500000E-01      0.663483E-02
      0.550000E-01      0.572537E-02
      0.600000E-01      0.489349E-02
      0.650000E-01      0.415151E-02
      0.700000E-01      0.350555E-02
      0.750000E-01      0.295608E-02
      0.800000E-01      0.249895E-02
      0.850000E-01      0.212647E-02
      0.900000E-01      0.182863E-02
      0.950000E-01      0.159421E-02
      0.100000          0.141178E-02
      0.105000          0.127050E-02
      0.110000          0.116063E-02
      0.115000          0.107396E-02
      0.120000          0.100383E-02
      0.125000          0.945224E-03
      0.130000          0.894518E-03
      0.135000          0.849329E-03
      0.140000          0.808228E-03
      0.145000          0.770494E-03
      0.150000          0.735871E-03
      0.155000          0.704368E-03
      0.160000          0.676093E-03
      0.165000          0.651131E-03
      0.170000          0.629466E-03
      0.175000          0.610931E-03
      0.180000          0.595194E-03
      0.185000          0.581774E-03
      0.190000          0.570072E-03
      0.195000          0.559423E-03
      0.200000          0.549151E-03
      0.205000          0.538633E-03
      0.210000          0.527355E-03
      0.215000          0.514949E-03
      0.220000          0.501226E-03
      0.225000          0.486178E-03
      0.230000          0.469963E-03
      0.235000          0.452877E-03
      0.240000          0.435305E-03
      0.245000          0.417673E-03
      0.250000          0.400397E-03
      0.255000          0.383844E-03
      0.260000          0.368299E-03
      0.265000          0.353952E-03
      0.270000          0.340896E-03
      0.275000          0.329144E-03
      0.280000          0.318640E-03
      0.285000          0.309289E-03
      0.290000          0.300977E-03
      0.295000          0.293585E-03
      0.300000          0.287002E-03
      0.305000          0.281123E-03
      0.310000          0.275852E-03
      0.315000          0.271088E-03
      0.320000          0.266728E-03
      0.325000          0.262655E-03
      0.330000          0.258748E-03
      0.335000          0.254878E-03
      0.340000          0.250925E-03
      0.345000          0.246786E-03
      0.350000          0.242388E-03
      0.355000          0.237691E-03
      0.360000          0.232697E-03
      0.365000          0.227440E-03
      0.370000          0.221983E-03
      0.375000          0.216400E-03
      0.380000          0.210767E-03
      0.385000          0.205141E-03
      0.390000          0.199560E-03
      0.395000          0.194029E-03
      0.400000          0.188528E-03
      0.405000          0.183018E-03
      0.410000          0.177452E-03
      0.415000          0.171790E-03
      0.420000          0.166010E-03
      0.425000          0.160120E-03
      0.430000          0.154163E-03
      0.435000          0.148214E-03
      0.440000          0.142376E-03
      0.445000          0.136767E-03
      0.450000          0.131505E-03
      0.455000          0.126696E-03
      0.460000          0.122421E-03
      0.465000          0.118721E-03
      0.470000          0.115602E-03
      0.475000          0.113026E-03
      0.480000          0.110924E-03
      0.485000          0.109199E-03
      0.490000          0.107738E-03
      0.495000          0.106429E-03
      0.500000          0.105162E-03
