 I_abs(s)[cm^-1]/c[mg/ml]
       0.00000          0.142713E-01
      0.500000E-02      0.142135E-01
      0.100000E-01      0.140415E-01
      0.150000E-01      0.137597E-01
      0.200000E-01      0.133751E-01
      0.250000E-01      0.128972E-01
      0.300000E-01      0.123372E-01
      0.350000E-01      0.117083E-01
      0.400000E-01      0.110244E-01
      0.450000E-01      0.103004E-01
      0.500000E-01      0.955082E-02
      0.550000E-01      0.878994E-02
      0.600000E-01      0.803113E-02
      0.650000E-01      0.728651E-02
      0.700000E-01      0.656665E-02
      0.750000E-01      0.588040E-02
      0.800000E-01      0.523476E-02
      0.850000E-01      0.463484E-02
      0.900000E-01      0.408397E-02
      0.950000E-01      0.358378E-02
      0.100000          0.313442E-02
      0.105000          0.273474E-02
      0.110000          0.238258E-02
      0.115000          0.207499E-02
      0.120000          0.180848E-02
      0.125000          0.157924E-02
      0.130000          0.138336E-02
      0.135000          0.121697E-02
      0.140000          0.107636E-02
      0.145000          0.958083E-03
      0.150000          0.859026E-03
      0.155000          0.776397E-03
      0.160000          0.707749E-03
      0.165000          0.650956E-03
      0.170000          0.604179E-03
      0.175000          0.565830E-03
      0.180000          0.534531E-03
      0.185000          0.509078E-03
      0.190000          0.488409E-03
      0.195000          0.471577E-03
      0.200000          0.457734E-03
      0.205000          0.446120E-03
      0.210000          0.436057E-03
      0.215000          0.426948E-03
      0.220000          0.418282E-03
      0.225000          0.409631E-03
      0.230000          0.400655E-03
      0.235000          0.391106E-03
      0.240000          0.380818E-03
      0.245000          0.369708E-03
      0.250000          0.357766E-03
      0.255000          0.345046E-03
      0.260000          0.331654E-03
      0.265000          0.317732E-03
      0.270000          0.303453E-03
      0.275000          0.289002E-03
      0.280000          0.274565E-03
      0.285000          0.260326E-03
      0.290000          0.246453E-03
      0.295000          0.233096E-03
      0.300000          0.220383E-03
      0.305000          0.208418E-03
      0.310000          0.197280E-03
      0.315000          0.187026E-03
      0.320000          0.177689E-03
      0.325000          0.169284E-03
      0.330000          0.161807E-03
      0.335000          0.155238E-03
      0.340000          0.149544E-03
      0.345000          0.144682E-03
      0.350000          0.140595E-03
      0.355000          0.137221E-03
      0.360000          0.134491E-03
      0.365000          0.132330E-03
      0.370000          0.130659E-03
      0.375000          0.129400E-03
      0.380000          0.128471E-03
      0.385000          0.127797E-03
      0.390000          0.127301E-03
      0.395000          0.126917E-03
      0.400000          0.126581E-03
      0.405000          0.126240E-03
      0.410000          0.125849E-03
      0.415000          0.125374E-03
      0.420000          0.124788E-03
      0.425000          0.124075E-03
      0.430000          0.123228E-03
      0.435000          0.122245E-03
      0.440000          0.121133E-03
      0.445000          0.119901E-03
      0.450000          0.118563E-03
      0.455000          0.117134E-03
      0.460000          0.115628E-03
      0.465000          0.114058E-03
      0.470000          0.112438E-03
      0.475000          0.110776E-03
      0.480000          0.109080E-03
      0.485000          0.107355E-03
      0.490000          0.105603E-03
      0.495000          0.103829E-03
      0.500000          0.102031E-03
