 I_abs(s)[cm^-1]/c[mg/ml]
       0.00000          0.143973E-01
      0.500000E-02      0.143153E-01
      0.100000E-01      0.140726E-01
      0.150000E-01      0.136779E-01
      0.200000E-01      0.131454E-01
      0.250000E-01      0.124938E-01
      0.300000E-01      0.117451E-01
      0.350000E-01      0.109231E-01
      0.400000E-01      0.100527E-01
      0.450000E-01      0.915803E-02
      0.500000E-01      0.826155E-02
      0.550000E-01      0.738320E-02
      0.600000E-01      0.653966E-02
      0.650000E-01      0.574400E-02
      0.700000E-01      0.500560E-02
      0.750000E-01      0.433034E-02
      0.800000E-01      0.372095E-02
      0.850000E-01      0.317757E-02
      0.900000E-01      0.269834E-02
      0.950000E-01      0.227998E-02
      0.100000          0.191840E-02
      0.105000          0.160913E-02
      0.110000          0.134770E-02
      0.115000          0.112983E-02
      0.120000          0.951560E-03
      0.125000          0.809241E-03
      0.130000          0.699441E-03
      0.135000          0.618848E-03
      0.140000          0.564144E-03
      0.145000          0.531910E-03
      0.150000          0.518574E-03
      0.155000          0.520413E-03
      0.160000          0.533614E-03
      0.165000          0.554381E-03
      0.170000          0.579073E-03
      0.175000          0.604356E-03
      0.180000          0.627354E-03
      0.185000          0.645757E-03
      0.190000          0.657909E-03
      0.195000          0.662830E-03
      0.200000          0.660192E-03
      0.205000          0.650253E-03
      0.210000          0.633743E-03
      0.215000          0.611736E-03
      0.220000          0.585508E-03
      0.225000          0.556399E-03
      0.230000          0.525697E-03
      0.235000          0.494545E-03
      0.240000          0.463887E-03
      0.245000          0.434437E-03
      0.250000          0.406687E-03
      0.255000          0.380929E-03
      0.260000          0.357300E-03
      0.265000          0.335827E-03
      0.270000          0.316476E-03
      0.275000          0.299188E-03
      0.280000          0.283905E-03
      0.285000          0.270585E-03
      0.290000          0.259196E-03
      0.295000          0.249714E-03
      0.300000          0.242097E-03
      0.305000          0.236273E-03
      0.310000          0.232121E-03
      0.315000          0.229460E-03
      0.320000          0.228051E-03
      0.325000          0.227599E-03
      0.330000          0.227770E-03
      0.335000          0.228214E-03
      0.340000          0.228585E-03
      0.345000          0.228570E-03
      0.350000          0.227910E-03
      0.355000          0.226413E-03
      0.360000          0.223971E-03
      0.365000          0.220554E-03
      0.370000          0.216213E-03
      0.375000          0.211062E-03
      0.380000          0.205263E-03
      0.385000          0.199008E-03
      0.390000          0.192501E-03
      0.395000          0.185936E-03
      0.400000          0.179488E-03
      0.405000          0.173297E-03
      0.410000          0.167466E-03
      0.415000          0.162059E-03
      0.420000          0.157102E-03
      0.425000          0.152593E-03
      0.430000          0.148502E-03
      0.435000          0.144788E-03
      0.440000          0.141397E-03
      0.445000          0.138277E-03
      0.450000          0.135377E-03
      0.455000          0.132652E-03
      0.460000          0.130064E-03
      0.465000          0.127582E-03
      0.470000          0.125183E-03
      0.475000          0.122846E-03
      0.480000          0.120557E-03
      0.485000          0.118300E-03
      0.490000          0.116067E-03
      0.495000          0.113846E-03
      0.500000          0.111634E-03
