 I_abs(s)[cm^-1]/c[mg/ml]
       0.00000          0.143106E-01
      0.500000E-02      0.142545E-01
      0.100000E-01      0.140874E-01
      0.150000E-01      0.138132E-01
      0.200000E-01      0.134382E-01
      0.250000E-01      0.129709E-01
      0.300000E-01      0.124215E-01
      0.350000E-01      0.118020E-01
      0.400000E-01      0.111254E-01
      0.450000E-01      0.104055E-01
      0.500000E-01      0.965620E-02
      0.550000E-01      0.889147E-02
      0.600000E-01      0.812457E-02
      0.650000E-01      0.736786E-02
      0.700000E-01      0.663248E-02
      0.750000E-01      0.592809E-02
      0.800000E-01      0.526273E-02
      0.850000E-01      0.464265E-02
      0.900000E-01      0.407235E-02
      0.950000E-01      0.355459E-02
      0.100000          0.309050E-02
      0.105000          0.267971E-02
      0.110000          0.232057E-02
      0.115000          0.201036E-02
      0.120000          0.174551E-02
      0.125000          0.152187E-02
      0.130000          0.133490E-02
      0.135000          0.117993E-02
      0.140000          0.105234E-02
      0.145000          0.947676E-03
      0.150000          0.861847E-03
      0.155000          0.791167E-03
      0.160000          0.732430E-03
      0.165000          0.682932E-03
      0.170000          0.640472E-03
      0.175000          0.603317E-03
      0.180000          0.570165E-03
      0.185000          0.540081E-03
      0.190000          0.512436E-03
      0.195000          0.486836E-03
      0.200000          0.463059E-03
      0.205000          0.440997E-03
      0.210000          0.420603E-03
      0.215000          0.401850E-03
      0.220000          0.384706E-03
      0.225000          0.369106E-03
      0.230000          0.354949E-03
      0.235000          0.342098E-03
      0.240000          0.330377E-03
      0.245000          0.319591E-03
      0.250000          0.309531E-03
      0.255000          0.299993E-03
      0.260000          0.290788E-03
      0.265000          0.281756E-03
      0.270000          0.272772E-03
      0.275000          0.263752E-03
      0.280000          0.254655E-03
      0.285000          0.245483E-03
      0.290000          0.236273E-03
      0.295000          0.227094E-03
      0.300000          0.218036E-03
      0.305000          0.209203E-03
      0.310000          0.200700E-03
      0.315000          0.192632E-03
      0.320000          0.185087E-03
      0.325000          0.178137E-03
      0.330000          0.171833E-03
      0.335000          0.166199E-03
      0.340000          0.161235E-03
      0.345000          0.156920E-03
      0.350000          0.153209E-03
      0.355000          0.150043E-03
      0.360000          0.147348E-03
      0.365000          0.145045E-03
      0.370000          0.143051E-03
      0.375000          0.141285E-03
      0.380000          0.139671E-03
      0.385000          0.138143E-03
      0.390000          0.136646E-03
      0.395000          0.135136E-03
      0.400000          0.133582E-03
      0.405000          0.131966E-03
      0.410000          0.130283E-03
      0.415000          0.128533E-03
      0.420000          0.126729E-03
      0.425000          0.124887E-03
      0.430000          0.123027E-03
      0.435000          0.121169E-03
      0.440000          0.119337E-03
      0.445000          0.117548E-03
      0.450000          0.115820E-03
      0.455000          0.114166E-03
      0.460000          0.112595E-03
      0.465000          0.111112E-03
      0.470000          0.109718E-03
      0.475000          0.108412E-03
      0.480000          0.107190E-03
      0.485000          0.106046E-03
      0.490000          0.104973E-03
      0.495000          0.103965E-03
      0.500000          0.103014E-03
