 I_abs(s)[cm^-1]/c[mg/ml]
       0.00000          0.141537E-01
      0.500000E-02      0.140806E-01
      0.100000E-01      0.138641E-01
      0.150000E-01      0.135114E-01
      0.200000E-01      0.130347E-01
      0.250000E-01      0.124495E-01
      0.300000E-01      0.117745E-01
      0.350000E-01      0.110301E-01
      0.400000E-01      0.102373E-01
      0.450000E-01      0.941706E-02
      0.500000E-01      0.858904E-02
      0.550000E-01      0.777097E-02
      0.600000E-01      0.697804E-02
      0.650000E-01      0.622265E-02
      0.700000E-01      0.551419E-02
      0.750000E-01      0.485919E-02
      0.800000E-01      0.426147E-02
      0.850000E-01      0.372249E-02
      0.900000E-01      0.324178E-02
      0.950000E-01      0.281727E-02
      0.100000          0.244579E-02
      0.105000          0.212339E-02
      0.110000          0.184566E-02
      0.115000          0.160802E-02
      0.120000          0.140592E-02
      0.125000          0.123496E-02
      0.130000          0.109103E-02
      0.135000          0.970388E-03
      0.140000          0.869639E-03
      0.145000          0.785812E-03
      0.150000          0.716328E-03
      0.155000          0.658984E-03
      0.160000          0.611922E-03
      0.165000          0.573585E-03
      0.170000          0.542669E-03
      0.175000          0.518065E-03
      0.180000          0.498810E-03
      0.185000          0.484037E-03
      0.190000          0.472939E-03
      0.195000          0.464739E-03
      0.200000          0.458687E-03
      0.205000          0.454052E-03
      0.210000          0.450147E-03
      0.215000          0.446341E-03
      0.220000          0.442091E-03
      0.225000          0.436964E-03
      0.230000          0.430654E-03
      0.235000          0.422987E-03
      0.240000          0.413926E-03
      0.245000          0.403550E-03
      0.250000          0.392032E-03
      0.255000          0.379615E-03
      0.260000          0.366573E-03
      0.265000          0.353185E-03
      0.270000          0.339710E-03
      0.275000          0.326360E-03
      0.280000          0.313298E-03
      0.285000          0.300629E-03
      0.290000          0.288406E-03
      0.295000          0.276642E-03
      0.300000          0.265318E-03
      0.305000          0.254400E-03
      0.310000          0.243852E-03
      0.315000          0.233646E-03
      0.320000          0.223765E-03
      0.325000          0.214209E-03
      0.330000          0.204994E-03
      0.335000          0.196147E-03
      0.340000          0.187703E-03
      0.345000          0.179697E-03
      0.350000          0.172158E-03
      0.355000          0.165110E-03
      0.360000          0.158561E-03
      0.365000          0.152508E-03
      0.370000          0.146934E-03
      0.375000          0.141809E-03
      0.380000          0.137097E-03
      0.385000          0.132753E-03
      0.390000          0.128734E-03
      0.395000          0.124995E-03
      0.400000          0.121497E-03
      0.405000          0.118209E-03
      0.410000          0.115110E-03
      0.415000          0.112186E-03
      0.420000          0.109436E-03
      0.425000          0.106865E-03
      0.430000          0.104485E-03
      0.435000          0.102313E-03
      0.440000          0.100364E-03
      0.445000          0.986537E-04
      0.450000          0.971893E-04
      0.455000          0.959722E-04
      0.460000          0.949940E-04
      0.465000          0.942371E-04
      0.470000          0.936742E-04
      0.475000          0.932705E-04
      0.480000          0.929858E-04
      0.485000          0.927767E-04
      0.490000          0.926002E-04
      0.495000          0.924160E-04
      0.500000          0.921895E-04
