 I_abs(s)[cm^-1]/c[mg/ml]
       0.00000          0.142634E-01
      0.500000E-02      0.141924E-01
      0.100000E-01      0.139814E-01
      0.150000E-01      0.136368E-01
      0.200000E-01      0.131686E-01
      0.250000E-01      0.125901E-01
      0.300000E-01      0.119178E-01
      0.350000E-01      0.111699E-01
      0.400000E-01      0.103659E-01
      0.450000E-01      0.952601E-02
      0.500000E-01      0.866998E-02
      0.550000E-01      0.781655E-02
      0.600000E-01      0.698281E-02
      0.650000E-01      0.618365E-02
      0.700000E-01      0.543144E-02
      0.750000E-01      0.473573E-02
      0.800000E-01      0.410326E-02
      0.850000E-01      0.353796E-02
      0.900000E-01      0.304116E-02
      0.950000E-01      0.261188E-02
      0.100000          0.224720E-02
      0.105000          0.194265E-02
      0.110000          0.169263E-02
      0.115000          0.149083E-02
      0.120000          0.133064E-02
      0.125000          0.120543E-02
      0.130000          0.110886E-02
      0.135000          0.103509E-02
      0.140000          0.978913E-03
      0.145000          0.935824E-03
      0.150000          0.902062E-03
      0.155000          0.874582E-03
      0.160000          0.850995E-03
      0.165000          0.829495E-03
      0.170000          0.808771E-03
      0.175000          0.787910E-03
      0.180000          0.766316E-03
      0.185000          0.743633E-03
      0.190000          0.719684E-03
      0.195000          0.694420E-03
      0.200000          0.667888E-03
      0.205000          0.640205E-03
      0.210000          0.611542E-03
      0.215000          0.582119E-03
      0.220000          0.552188E-03
      0.225000          0.522036E-03
      0.230000          0.491970E-03
      0.235000          0.462307E-03
      0.240000          0.433366E-03
      0.245000          0.405449E-03
      0.250000          0.378831E-03
      0.255000          0.353746E-03
      0.260000          0.330378E-03
      0.265000          0.308849E-03
      0.270000          0.289224E-03
      0.275000          0.271504E-03
      0.280000          0.255635E-03
      0.285000          0.241518E-03
      0.290000          0.229018E-03
      0.295000          0.217979E-03
      0.300000          0.208234E-03
      0.305000          0.199617E-03
      0.310000          0.191979E-03
      0.315000          0.185188E-03
      0.320000          0.179135E-03
      0.325000          0.173740E-03
      0.330000          0.168944E-03
      0.335000          0.164709E-03
      0.340000          0.161012E-03
      0.345000          0.157837E-03
      0.350000          0.155167E-03
      0.355000          0.152983E-03
      0.360000          0.151256E-03
      0.365000          0.149941E-03
      0.370000          0.148981E-03
      0.375000          0.148305E-03
      0.380000          0.147829E-03
      0.385000          0.147461E-03
      0.390000          0.147105E-03
      0.395000          0.146666E-03
      0.400000          0.146055E-03
      0.405000          0.145191E-03
      0.410000          0.144009E-03
      0.415000          0.142460E-03
      0.420000          0.140514E-03
      0.425000          0.138161E-03
      0.430000          0.135407E-03
      0.435000          0.132277E-03
      0.440000          0.128812E-03
      0.445000          0.125064E-03
      0.450000          0.121094E-03
      0.455000          0.116971E-03
      0.460000          0.112766E-03
      0.465000          0.108550E-03
      0.470000          0.104393E-03
      0.475000          0.100359E-03
      0.480000          0.965078E-04
      0.485000          0.928897E-04
      0.490000          0.895473E-04
      0.495000          0.865142E-04
      0.500000          0.838140E-04
