 I_abs(s)[cm^-1]/c[mg/ml]
       0.00000          0.142634E-01
      0.500000E-02      0.142077E-01
      0.100000E-01      0.140419E-01
      0.150000E-01      0.137703E-01
      0.200000E-01      0.133998E-01
      0.250000E-01      0.129395E-01
      0.300000E-01      0.124007E-01
      0.350000E-01      0.117960E-01
      0.400000E-01      0.111392E-01
      0.450000E-01      0.104445E-01
      0.500000E-01      0.972629E-02
      0.550000E-01      0.899821E-02
      0.600000E-01      0.827317E-02
      0.650000E-01      0.756275E-02
      0.700000E-01      0.687695E-02
      0.750000E-01      0.622402E-02
      0.800000E-01      0.561032E-02
      0.850000E-01      0.504035E-02
      0.900000E-01      0.451680E-02
      0.950000E-01      0.404068E-02
      0.100000          0.361153E-02
      0.105000          0.322770E-02
      0.110000          0.288654E-02
      0.115000          0.258473E-02
      0.120000          0.231852E-02
      0.125000          0.208399E-02
      0.130000          0.187722E-02
      0.135000          0.169450E-02
      0.140000          0.153244E-02
      0.145000          0.138803E-02
      0.150000          0.125874E-02
      0.155000          0.114245E-02
      0.160000          0.103749E-02
      0.165000          0.942539E-03
      0.170000          0.856598E-03
      0.175000          0.778905E-03
      0.180000          0.708867E-03
      0.185000          0.645994E-03
      0.190000          0.589845E-03
      0.195000          0.539989E-03
      0.200000          0.495974E-03
      0.205000          0.457312E-03
      0.210000          0.423479E-03
      0.215000          0.393925E-03
      0.220000          0.368081E-03
      0.225000          0.345387E-03
      0.230000          0.325309E-03
      0.235000          0.307355E-03
      0.240000          0.291098E-03
      0.245000          0.276179E-03
      0.250000          0.262318E-03
      0.255000          0.249311E-03
      0.260000          0.237026E-03
      0.265000          0.225393E-03
      0.270000          0.214392E-03
      0.275000          0.204038E-03
      0.280000          0.194364E-03
      0.285000          0.185415E-03
      0.290000          0.177225E-03
      0.295000          0.169819E-03
      0.300000          0.163200E-03
      0.305000          0.157346E-03
      0.310000          0.152214E-03
      0.315000          0.147740E-03
      0.320000          0.143840E-03
      0.325000          0.140423E-03
      0.330000          0.137389E-03
      0.335000          0.134643E-03
      0.340000          0.132094E-03
      0.345000          0.129664E-03
      0.350000          0.127290E-03
      0.355000          0.124927E-03
      0.360000          0.122547E-03
      0.365000          0.120142E-03
      0.370000          0.117717E-03
      0.375000          0.115293E-03
      0.380000          0.112903E-03
      0.385000          0.110584E-03
      0.390000          0.108381E-03
      0.395000          0.106336E-03
      0.400000          0.104492E-03
      0.405000          0.102885E-03
      0.410000          0.101545E-03
      0.415000          0.100493E-03
      0.420000          0.997408E-04
      0.425000          0.992885E-04
      0.430000          0.991271E-04
      0.435000          0.992374E-04
      0.440000          0.995913E-04
      0.445000          0.100153E-03
      0.450000          0.100879E-03
      0.455000          0.101723E-03
      0.460000          0.102636E-03
      0.465000          0.103565E-03
      0.470000          0.104461E-03
      0.475000          0.105276E-03
      0.480000          0.105967E-03
      0.485000          0.106496E-03
      0.490000          0.106831E-03
      0.495000          0.106950E-03
      0.500000          0.106835E-03
