 I_abs(s)[cm^-1]/c[mg/ml]
       0.00000          0.141537E-01
      0.500000E-02      0.140883E-01
      0.100000E-01      0.138938E-01
      0.150000E-01      0.135753E-01
      0.200000E-01      0.131407E-01
      0.250000E-01      0.126009E-01
      0.300000E-01      0.119691E-01
      0.350000E-01      0.112606E-01
      0.400000E-01      0.104918E-01
      0.450000E-01      0.968004E-02
      0.500000E-01      0.884279E-02
      0.550000E-01      0.799717E-02
      0.600000E-01      0.715937E-02
      0.650000E-01      0.634423E-02
      0.700000E-01      0.556480E-02
      0.750000E-01      0.483205E-02
      0.800000E-01      0.415471E-02
      0.850000E-01      0.353912E-02
      0.900000E-01      0.298928E-02
      0.950000E-01      0.250690E-02
      0.100000          0.209161E-02
      0.105000          0.174118E-02
      0.110000          0.145183E-02
      0.115000          0.121852E-02
      0.120000          0.103536E-02
      0.125000          0.895855E-03
      0.130000          0.793296E-03
      0.135000          0.721021E-03
      0.140000          0.672664E-03
      0.145000          0.642365E-03
      0.150000          0.624910E-03
      0.155000          0.615836E-03
      0.160000          0.611475E-03
      0.165000          0.608956E-03
      0.170000          0.606172E-03
      0.175000          0.601706E-03
      0.180000          0.594744E-03
      0.185000          0.584971E-03
      0.190000          0.572454E-03
      0.195000          0.557536E-03
      0.200000          0.540733E-03
      0.205000          0.522640E-03
      0.210000          0.503860E-03
      0.215000          0.484942E-03
      0.220000          0.466346E-03
      0.225000          0.448413E-03
      0.230000          0.431364E-03
      0.235000          0.415299E-03
      0.240000          0.400217E-03
      0.245000          0.386031E-03
      0.250000          0.372600E-03
      0.255000          0.359750E-03
      0.260000          0.347297E-03
      0.265000          0.335076E-03
      0.270000          0.322948E-03
      0.275000          0.310816E-03
      0.280000          0.298633E-03
      0.285000          0.286397E-03
      0.290000          0.274151E-03
      0.295000          0.261976E-03
      0.300000          0.249980E-03
      0.305000          0.238288E-03
      0.310000          0.227029E-03
      0.315000          0.216328E-03
      0.320000          0.206296E-03
      0.325000          0.197022E-03
      0.330000          0.188568E-03
      0.335000          0.180966E-03
      0.340000          0.174220E-03
      0.345000          0.168303E-03
      0.350000          0.163165E-03
      0.355000          0.158733E-03
      0.360000          0.154920E-03
      0.365000          0.151628E-03
      0.370000          0.148754E-03
      0.375000          0.146193E-03
      0.380000          0.143848E-03
      0.385000          0.141629E-03
      0.390000          0.139455E-03
      0.395000          0.137262E-03
      0.400000          0.134998E-03
      0.405000          0.132626E-03
      0.410000          0.130123E-03
      0.415000          0.127482E-03
      0.420000          0.124707E-03
      0.425000          0.121813E-03
      0.430000          0.118825E-03
      0.435000          0.115775E-03
      0.440000          0.112702E-03
      0.445000          0.109648E-03
      0.450000          0.106657E-03
      0.455000          0.103773E-03
      0.460000          0.101037E-03
      0.465000          0.984891E-04
      0.470000          0.961619E-04
      0.475000          0.940822E-04
      0.480000          0.922691E-04
      0.485000          0.907327E-04
      0.490000          0.894741E-04
      0.495000          0.884848E-04
      0.500000          0.877472E-04
