 I_abs(s)[cm^-1]/c[mg/ml]
       0.00000          0.142634E-01
      0.500000E-02      0.142152E-01
      0.100000E-01      0.140716E-01
      0.150000E-01      0.138358E-01
      0.200000E-01      0.135130E-01
      0.250000E-01      0.131104E-01
      0.300000E-01      0.126363E-01
      0.350000E-01      0.121008E-01
      0.400000E-01      0.115144E-01
      0.450000E-01      0.108885E-01
      0.500000E-01      0.102345E-01
      0.550000E-01      0.956367E-02
      0.600000E-01      0.888676E-02
      0.650000E-01      0.821374E-02
      0.700000E-01      0.755354E-02
      0.750000E-01      0.691389E-02
      0.800000E-01      0.630123E-02
      0.850000E-01      0.572060E-02
      0.900000E-01      0.517571E-02
      0.950000E-01      0.466892E-02
      0.100000          0.420143E-02
      0.105000          0.377333E-02
      0.110000          0.338384E-02
      0.115000          0.303142E-02
      0.120000          0.271398E-02
      0.125000          0.242905E-02
      0.130000          0.217393E-02
      0.135000          0.194586E-02
      0.140000          0.174209E-02
      0.145000          0.156000E-02
      0.150000          0.139719E-02
      0.155000          0.125146E-02
      0.160000          0.112089E-02
      0.165000          0.100381E-02
      0.170000          0.898792E-03
      0.175000          0.804624E-03
      0.180000          0.720280E-03
      0.185000          0.644887E-03
      0.190000          0.577691E-03
      0.195000          0.518025E-03
      0.200000          0.465284E-03
      0.205000          0.418904E-03
      0.210000          0.378345E-03
      0.215000          0.343086E-03
      0.220000          0.312619E-03
      0.225000          0.286447E-03
      0.230000          0.264089E-03
      0.235000          0.245085E-03
      0.240000          0.228997E-03
      0.245000          0.215418E-03
      0.250000          0.203977E-03
      0.255000          0.194337E-03
      0.260000          0.186198E-03
      0.265000          0.179300E-03
      0.270000          0.173419E-03
      0.275000          0.168361E-03
      0.280000          0.163965E-03
      0.285000          0.160095E-03
      0.290000          0.156637E-03
      0.295000          0.153495E-03
      0.300000          0.150589E-03
      0.305000          0.147853E-03
      0.310000          0.145229E-03
      0.315000          0.142671E-03
      0.320000          0.140139E-03
      0.325000          0.137601E-03
      0.330000          0.135034E-03
      0.335000          0.132421E-03
      0.340000          0.129750E-03
      0.345000          0.127019E-03
      0.350000          0.124230E-03
      0.355000          0.121390E-03
      0.360000          0.118513E-03
      0.365000          0.115616E-03
      0.370000          0.112717E-03
      0.375000          0.109839E-03
      0.380000          0.107003E-03
      0.385000          0.104232E-03
      0.390000          0.101547E-03
      0.395000          0.989656E-04
      0.400000          0.965048E-04
      0.405000          0.941775E-04
      0.410000          0.919938E-04
      0.415000          0.899600E-04
      0.420000          0.880795E-04
      0.425000          0.863523E-04
      0.430000          0.847758E-04
      0.435000          0.833452E-04
      0.440000          0.820538E-04
      0.445000          0.808938E-04
      0.450000          0.798564E-04
      0.455000          0.789330E-04
      0.460000          0.781150E-04
      0.465000          0.773944E-04
      0.470000          0.767643E-04
      0.475000          0.762187E-04
      0.480000          0.757529E-04
      0.485000          0.753631E-04
      0.490000          0.750466E-04
      0.495000          0.748011E-04
      0.500000          0.746248E-04
