 I_abs(s)[cm^-1]/c[mg/ml]
       0.00000          0.131548E-01
      0.500000E-02      0.130428E-01
      0.100000E-01      0.127135E-01
      0.150000E-01      0.121858E-01
      0.200000E-01      0.114898E-01
      0.250000E-01      0.106632E-01
      0.300000E-01      0.974893E-02
      0.350000E-01      0.879067E-02
      0.400000E-01      0.783000E-02
      0.450000E-01      0.690328E-02
      0.500000E-01      0.603949E-02
      0.550000E-01      0.525902E-02
      0.600000E-01      0.457339E-02
      0.650000E-01      0.398588E-02
      0.700000E-01      0.349282E-02
      0.750000E-01      0.308535E-02
      0.800000E-01      0.275135E-02
      0.850000E-01      0.247737E-02
      0.900000E-01      0.225017E-02
      0.950000E-01      0.205796E-02
      0.100000          0.189115E-02
      0.105000          0.174259E-02
      0.110000          0.160751E-02
      0.115000          0.148311E-02
      0.120000          0.136810E-02
      0.125000          0.126210E-02
      0.130000          0.116514E-02
      0.135000          0.107735E-02
      0.140000          0.998654E-03
      0.145000          0.928722E-03
      0.150000          0.866950E-03
      0.155000          0.812543E-03
      0.160000          0.764608E-03
      0.165000          0.722245E-03
      0.170000          0.684614E-03
      0.175000          0.650957E-03
      0.180000          0.620608E-03
      0.185000          0.592972E-03
      0.190000          0.567514E-03
      0.195000          0.543745E-03
      0.200000          0.521233E-03
      0.205000          0.499620E-03
      0.210000          0.478649E-03
      0.215000          0.458192E-03
      0.220000          0.438259E-03
      0.225000          0.418994E-03
      0.230000          0.400642E-03
      0.235000          0.383511E-03
      0.240000          0.367902E-03
      0.245000          0.354057E-03
      0.250000          0.342102E-03
      0.255000          0.332018E-03
      0.260000          0.323630E-03
      0.265000          0.316626E-03
      0.270000          0.310593E-03
      0.275000          0.305069E-03
      0.280000          0.299602E-03
      0.285000          0.293801E-03
      0.290000          0.287379E-03
      0.295000          0.280172E-03
      0.300000          0.272145E-03
      0.305000          0.263375E-03
      0.310000          0.254026E-03
      0.315000          0.244314E-03
      0.320000          0.234470E-03
      0.325000          0.224711E-03
      0.330000          0.215218E-03
      0.335000          0.206122E-03
      0.340000          0.197508E-03
      0.345000          0.189419E-03
      0.350000          0.181865E-03
      0.355000          0.174843E-03
      0.360000          0.168344E-03
      0.365000          0.162363E-03
      0.370000          0.156902E-03
      0.375000          0.151971E-03
      0.380000          0.147577E-03
      0.385000          0.143721E-03
      0.390000          0.140391E-03
      0.395000          0.137551E-03
      0.400000          0.135142E-03
      0.405000          0.133084E-03
      0.410000          0.131276E-03
      0.415000          0.129608E-03
      0.420000          0.127970E-03
      0.425000          0.126263E-03
      0.430000          0.124407E-03
      0.435000          0.122351E-03
      0.440000          0.120074E-03
      0.445000          0.117586E-03
      0.450000          0.114923E-03
      0.455000          0.112143E-03
      0.460000          0.109313E-03
      0.465000          0.106502E-03
      0.470000          0.103772E-03
      0.475000          0.101170E-03
      0.480000          0.987256E-04
      0.485000          0.964480E-04
      0.490000          0.943304E-04
      0.495000          0.923529E-04
      0.500000          0.904880E-04
