 I_abs(s)[cm^-1]/c[mg/ml]
       0.00000          0.118036E-01
      0.500000E-02      0.115713E-01
      0.100000E-01      0.109092E-01
      0.150000E-01      0.991385E-02
      0.200000E-01      0.872256E-02
      0.250000E-01      0.748426E-02
      0.300000E-01      0.633068E-02
      0.350000E-01      0.535432E-02
      0.400000E-01      0.459800E-02
      0.450000E-01      0.405715E-02
      0.500000E-01      0.369214E-02
      0.550000E-01      0.344598E-02
      0.600000E-01      0.326171E-02
      0.650000E-01      0.309522E-02
      0.700000E-01      0.292111E-02
      0.750000E-01      0.273193E-02
      0.800000E-01      0.253282E-02
      0.850000E-01      0.233446E-02
      0.900000E-01      0.214702E-02
      0.950000E-01      0.197666E-02
      0.100000          0.182475E-02
      0.105000          0.168926E-02
      0.110000          0.156684E-02
      0.115000          0.145460E-02
      0.120000          0.135102E-02
      0.125000          0.125575E-02
      0.130000          0.116896E-02
      0.135000          0.109057E-02
      0.140000          0.101986E-02
      0.145000          0.955557E-03
      0.150000          0.896258E-03
      0.155000          0.840940E-03
      0.160000          0.789255E-03
      0.165000          0.741520E-03
      0.170000          0.698426E-03
      0.175000          0.660611E-03
      0.180000          0.628277E-03
      0.185000          0.600995E-03
      0.190000          0.577729E-03
      0.195000          0.557057E-03
      0.200000          0.537474E-03
      0.205000          0.517696E-03
      0.210000          0.496876E-03
      0.215000          0.474699E-03
      0.220000          0.451356E-03
      0.225000          0.427420E-03
      0.230000          0.403680E-03
      0.235000          0.380958E-03
      0.240000          0.359954E-03
      0.245000          0.341141E-03
      0.250000          0.324715E-03
      0.255000          0.310599E-03
      0.260000          0.298489E-03
      0.265000          0.287921E-03
      0.270000          0.278345E-03
      0.275000          0.269205E-03
      0.280000          0.260017E-03
      0.285000          0.250430E-03
      0.290000          0.240288E-03
      0.295000          0.229649E-03
      0.300000          0.218769E-03
      0.305000          0.208038E-03
      0.310000          0.197882E-03
      0.315000          0.188651E-03
      0.320000          0.180531E-03
      0.325000          0.173516E-03
      0.330000          0.167437E-03
      0.335000          0.162042E-03
      0.340000          0.157096E-03
      0.345000          0.152457E-03
      0.350000          0.148090E-03
      0.355000          0.144040E-03
      0.360000          0.140357E-03
      0.365000          0.137036E-03
      0.370000          0.133989E-03
      0.375000          0.131069E-03
      0.380000          0.128143E-03
      0.385000          0.125162E-03
      0.390000          0.122203E-03
      0.395000          0.119452E-03
      0.400000          0.117129E-03
      0.405000          0.115384E-03
      0.410000          0.114204E-03
      0.415000          0.113383E-03
      0.420000          0.112555E-03
      0.425000          0.111300E-03
      0.430000          0.109270E-03
      0.435000          0.106305E-03
      0.440000          0.102486E-03
      0.445000          0.981188E-04
      0.450000          0.936448E-04
      0.455000          0.895182E-04
      0.460000          0.860881E-04
      0.465000          0.835208E-04
      0.470000          0.817816E-04
      0.475000          0.806749E-04
      0.480000          0.799208E-04
      0.485000          0.792413E-04
      0.490000          0.784258E-04
      0.495000          0.773616E-04
      0.500000          0.760277E-04
