 I_abs(s)[cm^-1]/c[mg/ml]
       0.00000          0.121273E-01
      0.500000E-02      0.119027E-01
      0.100000E-01      0.112652E-01
      0.150000E-01      0.103138E-01
      0.200000E-01      0.918568E-02
      0.250000E-01      0.802402E-02
      0.300000E-01      0.694720E-02
      0.350000E-01      0.602892E-02
      0.400000E-01      0.529293E-02
      0.450000E-01      0.472187E-02
      0.500000E-01      0.427495E-02
      0.550000E-01      0.390743E-02
      0.600000E-01      0.358535E-02
      0.650000E-01      0.329192E-02
      0.700000E-01      0.302559E-02
      0.750000E-01      0.279278E-02
      0.800000E-01      0.259949E-02
      0.850000E-01      0.244547E-02
      0.900000E-01      0.232284E-02
      0.950000E-01      0.221866E-02
      0.100000          0.211947E-02
      0.105000          0.201556E-02
      0.110000          0.190312E-02
      0.115000          0.178382E-02
      0.120000          0.166257E-02
      0.125000          0.154473E-02
      0.130000          0.143407E-02
      0.135000          0.133201E-02
      0.140000          0.123819E-02
      0.145000          0.115160E-02
      0.150000          0.107154E-02
      0.155000          0.998071E-03
      0.160000          0.931758E-03
      0.165000          0.873092E-03
      0.170000          0.821961E-03
      0.175000          0.777479E-03
      0.180000          0.738221E-03
      0.185000          0.702675E-03
      0.190000          0.669671E-03
      0.195000          0.638564E-03
      0.200000          0.609149E-03
      0.205000          0.581397E-03
      0.210000          0.555192E-03
      0.215000          0.530214E-03
      0.220000          0.505999E-03
      0.225000          0.482110E-03
      0.230000          0.458320E-03
      0.235000          0.434685E-03
      0.240000          0.411486E-03
      0.245000          0.389077E-03
      0.250000          0.367726E-03
      0.255000          0.347518E-03
      0.260000          0.328364E-03
      0.265000          0.310080E-03
      0.270000          0.292497E-03
      0.275000          0.275533E-03
      0.280000          0.259204E-03
      0.285000          0.243580E-03
      0.290000          0.228732E-03
      0.295000          0.214696E-03
      0.300000          0.201465E-03
      0.305000          0.189027E-03
      0.310000          0.177392E-03
      0.315000          0.166603E-03
      0.320000          0.156717E-03
      0.325000          0.147766E-03
      0.330000          0.139722E-03
      0.335000          0.132490E-03
      0.340000          0.125934E-03
      0.345000          0.119922E-03
      0.350000          0.114371E-03
      0.355000          0.109272E-03
      0.360000          0.104679E-03
      0.365000          0.100667E-03
      0.370000          0.972841E-04
      0.375000          0.945005E-04
      0.380000          0.921973E-04
      0.385000          0.901879E-04
      0.390000          0.882755E-04
      0.395000          0.863231E-04
      0.400000          0.843065E-04
      0.405000          0.823219E-04
      0.410000          0.805406E-04
      0.415000          0.791249E-04
      0.420000          0.781446E-04
      0.425000          0.775342E-04
      0.430000          0.771147E-04
      0.435000          0.766715E-04
      0.440000          0.760491E-04
      0.445000          0.752143E-04
      0.450000          0.742559E-04
      0.455000          0.733198E-04
      0.460000          0.725169E-04
      0.465000          0.718515E-04
      0.470000          0.712086E-04
      0.475000          0.704073E-04
      0.480000          0.692930E-04
      0.485000          0.678223E-04
      0.490000          0.660982E-04
      0.495000          0.643378E-04
      0.500000          0.627856E-04
