 I_abs(s)[cm^-1]/c[mg/ml]
       0.00000          0.118322E-01
      0.500000E-02      0.116132E-01
      0.100000E-01      0.109899E-01
      0.150000E-01      0.100545E-01
      0.200000E-01      0.893657E-02
      0.250000E-01      0.777427E-02
      0.300000E-01      0.668645E-02
      0.350000E-01      0.575314E-02
      0.400000E-01      0.500838E-02
      0.450000E-01      0.444534E-02
      0.500000E-01      0.403007E-02
      0.550000E-01      0.371817E-02
      0.600000E-01      0.346897E-02
      0.650000E-01      0.325373E-02
      0.700000E-01      0.305713E-02
      0.750000E-01      0.287381E-02
      0.800000E-01      0.270290E-02
      0.850000E-01      0.254344E-02
      0.900000E-01      0.239233E-02
      0.950000E-01      0.224493E-02
      0.100000          0.209713E-02
      0.105000          0.194746E-02
      0.110000          0.179789E-02
      0.115000          0.165312E-02
      0.120000          0.151878E-02
      0.125000          0.139932E-02
      0.130000          0.129675E-02
      0.135000          0.121033E-02
      0.140000          0.113733E-02
      0.145000          0.107419E-02
      0.150000          0.101767E-02
      0.155000          0.965412E-03
      0.160000          0.916038E-03
      0.165000          0.868852E-03
      0.170000          0.823516E-03
      0.175000          0.779850E-03
      0.180000          0.737824E-03
      0.185000          0.697606E-03
      0.190000          0.659550E-03
      0.195000          0.624035E-03
      0.200000          0.591223E-03
      0.205000          0.560864E-03
      0.210000          0.532272E-03
      0.215000          0.504530E-03
      0.220000          0.476840E-03
      0.225000          0.448853E-03
      0.230000          0.420835E-03
      0.235000          0.393580E-03
      0.240000          0.368102E-03
      0.245000          0.345255E-03
      0.250000          0.325423E-03
      0.255000          0.308403E-03
      0.260000          0.293512E-03
      0.265000          0.279830E-03
      0.270000          0.266492E-03
      0.275000          0.252905E-03
      0.280000          0.238831E-03
      0.285000          0.224353E-03
      0.290000          0.209767E-03
      0.295000          0.195464E-03
      0.300000          0.181839E-03
      0.305000          0.169247E-03
      0.310000          0.157990E-03
      0.315000          0.148300E-03
      0.320000          0.140319E-03
      0.325000          0.134064E-03
      0.330000          0.129405E-03
      0.335000          0.126063E-03
      0.340000          0.123640E-03
      0.345000          0.121689E-03
      0.350000          0.119793E-03
      0.355000          0.117635E-03
      0.360000          0.115046E-03
      0.365000          0.112012E-03
      0.370000          0.108647E-03
      0.375000          0.105146E-03
      0.380000          0.101726E-03
      0.385000          0.985837E-04
      0.390000          0.958551E-04
      0.395000          0.936051E-04
      0.400000          0.918267E-04
      0.405000          0.904581E-04
      0.410000          0.894093E-04
      0.415000          0.885928E-04
      0.420000          0.879470E-04
      0.425000          0.874436E-04
      0.430000          0.870746E-04
      0.435000          0.868242E-04
      0.440000          0.866422E-04
      0.445000          0.864350E-04
      0.450000          0.860857E-04
      0.455000          0.854951E-04
      0.460000          0.846251E-04
      0.465000          0.835203E-04
      0.470000          0.822930E-04
      0.475000          0.810766E-04
      0.480000          0.799708E-04
      0.485000          0.790038E-04
      0.490000          0.781285E-04
      0.495000          0.772525E-04
      0.500000          0.762811E-04
