 I_abs(s)[cm^-1]/c[mg/ml]
       0.00000          0.121780E-01
      0.500000E-02      0.119553E-01
      0.100000E-01      0.113214E-01
      0.150000E-01      0.103706E-01
      0.200000E-01      0.923592E-02
      0.250000E-01      0.805881E-02
      0.300000E-01      0.696103E-02
      0.350000E-01      0.602383E-02
      0.400000E-01      0.527987E-02
      0.450000E-01      0.471811E-02
      0.500000E-01      0.429809E-02
      0.550000E-01      0.396808E-02
      0.600000E-01      0.368132E-02
      0.650000E-01      0.340634E-02
      0.700000E-01      0.312988E-02
      0.750000E-01      0.285353E-02
      0.800000E-01      0.258710E-02
      0.850000E-01      0.234159E-02
      0.900000E-01      0.212429E-02
      0.950000E-01      0.193699E-02
      0.100000          0.177680E-02
      0.105000          0.163841E-02
      0.110000          0.151649E-02
      0.115000          0.140726E-02
      0.120000          0.130878E-02
      0.125000          0.122043E-02
      0.130000          0.114202E-02
      0.135000          0.107300E-02
      0.140000          0.101213E-02
      0.145000          0.957685E-03
      0.150000          0.907800E-03
      0.155000          0.860957E-03
      0.160000          0.816252E-03
      0.165000          0.773448E-03
      0.170000          0.732819E-03
      0.175000          0.694881E-03
      0.180000          0.660112E-03
      0.185000          0.628737E-03
      0.190000          0.600627E-03
      0.195000          0.575309E-03
      0.200000          0.552079E-03
      0.205000          0.530161E-03
      0.210000          0.508880E-03
      0.215000          0.487793E-03
      0.220000          0.466752E-03
      0.225000          0.445894E-03
      0.230000          0.425563E-03
      0.235000          0.406211E-03
      0.240000          0.388281E-03
      0.245000          0.372118E-03
      0.250000          0.357896E-03
      0.255000          0.345576E-03
      0.260000          0.334890E-03
      0.265000          0.325369E-03
      0.270000          0.316415E-03
      0.275000          0.307408E-03
      0.280000          0.297847E-03
      0.285000          0.287458E-03
      0.290000          0.276261E-03
      0.295000          0.264546E-03
      0.300000          0.252773E-03
      0.305000          0.241421E-03
      0.310000          0.230850E-03
      0.315000          0.221212E-03
      0.320000          0.212444E-03
      0.325000          0.204339E-03
      0.330000          0.196647E-03
      0.335000          0.189176E-03
      0.340000          0.181841E-03
      0.345000          0.174660E-03
      0.350000          0.167713E-03
      0.355000          0.161074E-03
      0.360000          0.154772E-03
      0.365000          0.148771E-03
      0.370000          0.142990E-03
      0.375000          0.137331E-03
      0.380000          0.131720E-03
      0.385000          0.126132E-03
      0.390000          0.120601E-03
      0.395000          0.115211E-03
      0.400000          0.110083E-03
      0.405000          0.105334E-03
      0.410000          0.101052E-03
      0.415000          0.972670E-04
      0.420000          0.939385E-04
      0.425000          0.909698E-04
      0.430000          0.882369E-04
      0.435000          0.856285E-04
      0.440000          0.830790E-04
      0.445000          0.805810E-04
      0.450000          0.781712E-04
      0.455000          0.758981E-04
      0.460000          0.737873E-04
      0.465000          0.718220E-04
      0.470000          0.699474E-04
      0.475000          0.680965E-04
      0.480000          0.662232E-04
      0.485000          0.643238E-04
      0.490000          0.624377E-04
      0.495000          0.606255E-04
      0.500000          0.589369E-04
