 I_abs(s)[cm^-1]/c[mg/ml]
       0.00000          0.119253E-01
      0.500000E-02      0.116665E-01
      0.100000E-01      0.109378E-01
      0.150000E-01      0.986910E-02
      0.200000E-01      0.863689E-02
      0.250000E-01      0.741846E-02
      0.300000E-01      0.635055E-02
      0.350000E-01      0.550460E-02
      0.400000E-01      0.488442E-02
      0.450000E-01      0.444364E-02
      0.500000E-01      0.411398E-02
      0.550000E-01      0.383325E-02
      0.600000E-01      0.356355E-02
      0.650000E-01      0.329558E-02
      0.700000E-01      0.304076E-02
      0.750000E-01      0.281712E-02
      0.800000E-01      0.263608E-02
      0.850000E-01      0.249558E-02
      0.900000E-01      0.238100E-02
      0.950000E-01      0.227210E-02
      0.100000          0.215167E-02
      0.105000          0.201184E-02
      0.110000          0.185566E-02
      0.115000          0.169404E-02
      0.120000          0.154015E-02
      0.125000          0.140393E-02
      0.130000          0.128919E-02
      0.135000          0.119366E-02
      0.140000          0.111161E-02
      0.145000          0.103723E-02
      0.150000          0.967132E-03
      0.155000          0.901241E-03
      0.160000          0.841816E-03
      0.165000          0.791582E-03
      0.170000          0.751886E-03
      0.175000          0.721727E-03
      0.180000          0.697945E-03
      0.185000          0.676329E-03
      0.190000          0.653069E-03
      0.195000          0.625934E-03
      0.200000          0.594774E-03
      0.205000          0.561228E-03
      0.210000          0.527869E-03
      0.215000          0.497139E-03
      0.220000          0.470488E-03
      0.225000          0.447990E-03
      0.230000          0.428520E-03
      0.235000          0.410369E-03
      0.240000          0.392005E-03
      0.245000          0.372686E-03
      0.250000          0.352666E-03
      0.255000          0.332963E-03
      0.260000          0.314805E-03
      0.265000          0.299016E-03
      0.270000          0.285635E-03
      0.275000          0.273908E-03
      0.280000          0.262660E-03
      0.285000          0.250831E-03
      0.290000          0.237943E-03
      0.295000          0.224271E-03
      0.300000          0.210659E-03
      0.305000          0.198094E-03
      0.310000          0.187249E-03
      0.315000          0.178201E-03
      0.320000          0.170457E-03
      0.325000          0.163238E-03
      0.330000          0.155879E-03
      0.335000          0.148151E-03
      0.340000          0.140357E-03
      0.345000          0.133173E-03
      0.350000          0.127313E-03
      0.355000          0.123191E-03
      0.360000          0.120713E-03
      0.365000          0.119313E-03
      0.370000          0.118187E-03
      0.375000          0.116625E-03
      0.380000          0.114280E-03
      0.385000          0.111258E-03
      0.390000          0.107995E-03
      0.395000          0.105009E-03
      0.400000          0.102632E-03
      0.405000          0.100879E-03
      0.410000          0.994810E-04
      0.415000          0.980635E-04
      0.420000          0.963430E-04
      0.425000          0.942548E-04
      0.430000          0.919520E-04
      0.435000          0.897028E-04
      0.440000          0.877562E-04
      0.445000          0.862454E-04
      0.450000          0.851587E-04
      0.455000          0.843654E-04
      0.460000          0.836633E-04
      0.465000          0.828272E-04
      0.470000          0.816549E-04
      0.475000          0.800154E-04
      0.480000          0.778922E-04
      0.485000          0.753997E-04
      0.490000          0.727493E-04
      0.495000          0.701696E-04
      0.500000          0.678141E-04
