 I_abs(s)[cm^-1]/c[mg/ml]
       0.00000          0.118895E-01
      0.500000E-02      0.116467E-01
      0.100000E-01      0.109593E-01
      0.150000E-01      0.993939E-02
      0.200000E-01      0.874166E-02
      0.250000E-01      0.752621E-02
      0.300000E-01      0.642385E-02
      0.350000E-01      0.551363E-02
      0.400000E-01      0.481752E-02
      0.450000E-01      0.431098E-02
      0.500000E-01      0.394329E-02
      0.550000E-01      0.365950E-02
      0.600000E-01      0.341681E-02
      0.650000E-01      0.319169E-02
      0.700000E-01      0.297808E-02
      0.750000E-01      0.277986E-02
      0.800000E-01      0.260246E-02
      0.850000E-01      0.244705E-02
      0.900000E-01      0.230900E-02
      0.950000E-01      0.217997E-02
      0.100000          0.205168E-02
      0.105000          0.191918E-02
      0.110000          0.178214E-02
      0.115000          0.164413E-02
      0.120000          0.151054E-02
      0.125000          0.138641E-02
      0.130000          0.127491E-02
      0.135000          0.117705E-02
      0.140000          0.109211E-02
      0.145000          0.101854E-02
      0.150000          0.954629E-03
      0.155000          0.898856E-03
      0.160000          0.849934E-03
      0.165000          0.806692E-03
      0.170000          0.768006E-03
      0.175000          0.732845E-03
      0.180000          0.700360E-03
      0.185000          0.669946E-03
      0.190000          0.641219E-03
      0.195000          0.613904E-03
      0.200000          0.587719E-03
      0.205000          0.562326E-03
      0.210000          0.537366E-03
      0.215000          0.512553E-03
      0.220000          0.487786E-03
      0.225000          0.463189E-03
      0.230000          0.439084E-03
      0.235000          0.415898E-03
      0.240000          0.394046E-03
      0.245000          0.373838E-03
      0.250000          0.355432E-03
      0.255000          0.338824E-03
      0.260000          0.323884E-03
      0.265000          0.310390E-03
      0.270000          0.298068E-03
      0.275000          0.286615E-03
      0.280000          0.275717E-03
      0.285000          0.265054E-03
      0.290000          0.254322E-03
      0.295000          0.243259E-03
      0.300000          0.231699E-03
      0.305000          0.219624E-03
      0.310000          0.207204E-03
      0.315000          0.194792E-03
      0.320000          0.182852E-03
      0.325000          0.171845E-03
      0.330000          0.162093E-03
      0.335000          0.153694E-03
      0.340000          0.146505E-03
      0.345000          0.140229E-03
      0.350000          0.134545E-03
      0.355000          0.129239E-03
      0.360000          0.124267E-03
      0.365000          0.119725E-03
      0.370000          0.115743E-03
      0.375000          0.112376E-03
      0.380000          0.109523E-03
      0.385000          0.106935E-03
      0.390000          0.104294E-03
      0.395000          0.101318E-03
      0.400000          0.978552E-04
      0.405000          0.939251E-04
      0.410000          0.897029E-04
      0.415000          0.854668E-04
      0.420000          0.815291E-04
      0.425000          0.781700E-04
      0.430000          0.755838E-04
      0.435000          0.738421E-04
      0.440000          0.728804E-04
      0.445000          0.725164E-04
      0.450000          0.725013E-04
      0.455000          0.725909E-04
      0.460000          0.726140E-04
      0.465000          0.725067E-04
      0.470000          0.723017E-04
      0.475000          0.720758E-04
      0.480000          0.718837E-04
      0.485000          0.717086E-04
      0.490000          0.714519E-04
      0.495000          0.709629E-04
      0.500000          0.700938E-04
