 I_abs(s)[cm^-1]/c[mg/ml]
       0.00000          0.121200E-01
      0.500000E-02      0.118782E-01
      0.100000E-01      0.111908E-01
      0.150000E-01      0.101633E-01
      0.200000E-01      0.894338E-02
      0.250000E-01      0.768794E-02
      0.300000E-01      0.653077E-02
      0.350000E-01      0.556009E-02
      0.400000E-01      0.481029E-02
      0.450000E-01      0.426795E-02
      0.500000E-01      0.388804E-02
      0.550000E-01      0.361382E-02
      0.600000E-01      0.339404E-02
      0.650000E-01      0.319329E-02
      0.700000E-01      0.299445E-02
      0.750000E-01      0.279489E-02
      0.800000E-01      0.259972E-02
      0.850000E-01      0.241532E-02
      0.900000E-01      0.224526E-02
      0.950000E-01      0.208935E-02
      0.100000          0.194478E-02
      0.105000          0.180822E-02
      0.110000          0.167744E-02
      0.115000          0.155198E-02
      0.120000          0.143283E-02
      0.125000          0.132157E-02
      0.130000          0.121963E-02
      0.135000          0.112782E-02
      0.140000          0.104627E-02
      0.145000          0.974508E-03
      0.150000          0.911662E-03
      0.155000          0.856511E-03
      0.160000          0.807585E-03
      0.165000          0.763301E-03
      0.170000          0.722197E-03
      0.175000          0.683190E-03
      0.180000          0.645747E-03
      0.185000          0.609873E-03
      0.190000          0.575902E-03
      0.195000          0.544207E-03
      0.200000          0.514950E-03
      0.205000          0.488004E-03
      0.210000          0.463048E-03
      0.215000          0.439753E-03
      0.220000          0.417931E-03
      0.225000          0.397546E-03
      0.230000          0.378614E-03
      0.235000          0.361041E-03
      0.240000          0.344550E-03
      0.245000          0.328760E-03
      0.250000          0.313372E-03
      0.255000          0.298386E-03
      0.260000          0.284180E-03
      0.265000          0.271391E-03
      0.270000          0.260625E-03
      0.275000          0.252128E-03
      0.280000          0.245574E-03
      0.285000          0.240102E-03
      0.290000          0.234593E-03
      0.295000          0.228069E-03
      0.300000          0.220046E-03
      0.305000          0.210672E-03
      0.310000          0.200610E-03
      0.315000          0.190724E-03
      0.320000          0.181715E-03
      0.325000          0.173877E-03
      0.330000          0.167049E-03
      0.335000          0.160777E-03
      0.340000          0.154561E-03
      0.345000          0.148092E-03
      0.350000          0.141354E-03
      0.355000          0.134580E-03
      0.360000          0.128119E-03
      0.365000          0.122271E-03
      0.370000          0.117192E-03
      0.375000          0.112873E-03
      0.380000          0.109201E-03
      0.385000          0.106031E-03
      0.390000          0.103235E-03
      0.395000          0.100725E-03
      0.400000          0.984307E-04
      0.405000          0.962887E-04
      0.410000          0.942377E-04
      0.415000          0.922363E-04
      0.420000          0.902816E-04
      0.425000          0.884115E-04
      0.430000          0.866850E-04
      0.435000          0.851479E-04
      0.440000          0.838050E-04
      0.445000          0.826128E-04
      0.450000          0.814989E-04
      0.455000          0.803947E-04
      0.460000          0.792642E-04
      0.465000          0.781137E-04
      0.470000          0.769802E-04
      0.475000          0.759081E-04
      0.480000          0.749267E-04
      0.485000          0.740391E-04
      0.490000          0.732237E-04
      0.495000          0.724435E-04
      0.500000          0.716548E-04
