 I_abs(s)[cm^-1]/c[mg/ml]
       0.00000          0.122289E-01
      0.500000E-02      0.120248E-01
      0.100000E-01      0.114425E-01
      0.150000E-01      0.105644E-01
      0.200000E-01      0.950672E-02
      0.250000E-01      0.839415E-02
      0.300000E-01      0.733516E-02
      0.350000E-01      0.640433E-02
      0.400000E-01      0.563537E-02
      0.450000E-01      0.502523E-02
      0.500000E-01      0.454604E-02
      0.550000E-01      0.416021E-02
      0.600000E-01      0.383350E-02
      0.650000E-01      0.354292E-02
      0.700000E-01      0.327822E-02
      0.750000E-01      0.303849E-02
      0.800000E-01      0.282643E-02
      0.850000E-01      0.264317E-02
      0.900000E-01      0.248552E-02
      0.950000E-01      0.234625E-02
      0.100000          0.221639E-02
      0.105000          0.208827E-02
      0.110000          0.195770E-02
      0.115000          0.182456E-02
      0.120000          0.169184E-02
      0.125000          0.156381E-02
      0.130000          0.144420E-02
      0.135000          0.133513E-02
      0.140000          0.123693E-02
      0.145000          0.114872E-02
      0.150000          0.106916E-02
      0.155000          0.997144E-03
      0.160000          0.931892E-03
      0.165000          0.872838E-03
      0.170000          0.819317E-03
      0.175000          0.770405E-03
      0.180000          0.724998E-03
      0.185000          0.682105E-03
      0.190000          0.641148E-03
      0.195000          0.602113E-03
      0.200000          0.565444E-03
      0.205000          0.531726E-03
      0.210000          0.501323E-03
      0.215000          0.474125E-03
      0.220000          0.449520E-03
      0.225000          0.426589E-03
      0.230000          0.404417E-03
      0.235000          0.382376E-03
      0.240000          0.360267E-03
      0.245000          0.338298E-03
      0.250000          0.316914E-03
      0.255000          0.296602E-03
      0.260000          0.277741E-03
      0.265000          0.260544E-03
      0.270000          0.245094E-03
      0.275000          0.231406E-03
      0.280000          0.219489E-03
      0.285000          0.209342E-03
      0.290000          0.200923E-03
      0.295000          0.194092E-03
      0.300000          0.188585E-03
      0.305000          0.184030E-03
      0.310000          0.180011E-03
      0.315000          0.176147E-03
      0.320000          0.172165E-03
      0.325000          0.167937E-03
      0.330000          0.163465E-03
      0.335000          0.158838E-03
      0.340000          0.154169E-03
      0.345000          0.149547E-03
      0.350000          0.145010E-03
      0.355000          0.140551E-03
      0.360000          0.136144E-03
      0.365000          0.131783E-03
      0.370000          0.127503E-03
      0.375000          0.123389E-03
      0.380000          0.119551E-03
      0.385000          0.116090E-03
      0.390000          0.113061E-03
      0.395000          0.110443E-03
      0.400000          0.108137E-03
      0.405000          0.105996E-03
      0.410000          0.103861E-03
      0.415000          0.101615E-03
      0.420000          0.992156E-04
      0.425000          0.967076E-04
      0.430000          0.942017E-04
      0.435000          0.918342E-04
      0.440000          0.897149E-04
      0.445000          0.878868E-04
      0.450000          0.863111E-04
      0.455000          0.848871E-04
      0.460000          0.834986E-04
      0.465000          0.820679E-04
      0.470000          0.805936E-04
      0.475000          0.791522E-04
      0.480000          0.778592E-04
      0.485000          0.768058E-04
      0.490000          0.759994E-04
      0.495000          0.753381E-04
      0.500000          0.746339E-04
