 I_abs(s)[cm^-1]/c[mg/ml]
       0.00000          0.121780E-01
      0.500000E-02      0.119598E-01
      0.100000E-01      0.113383E-01
      0.150000E-01      0.104048E-01
      0.200000E-01      0.928793E-02
      0.250000E-01      0.812473E-02
      0.300000E-01      0.703319E-02
      0.350000E-01      0.609241E-02
      0.400000E-01      0.533519E-02
      0.450000E-01      0.475290E-02
      0.500000E-01      0.430948E-02
      0.550000E-01      0.395886E-02
      0.600000E-01      0.366018E-02
      0.650000E-01      0.338702E-02
      0.700000E-01      0.312921E-02
      0.750000E-01      0.288886E-02
      0.800000E-01      0.267338E-02
      0.850000E-01      0.248887E-02
      0.900000E-01      0.233608E-02
      0.950000E-01      0.220975E-02
      0.100000          0.210068E-02
      0.105000          0.199900E-02
      0.110000          0.189706E-02
      0.115000          0.179099E-02
      0.120000          0.168063E-02
      0.125000          0.156830E-02
      0.130000          0.145727E-02
      0.135000          0.135053E-02
      0.140000          0.125013E-02
      0.145000          0.115722E-02
      0.150000          0.107236E-02
      0.155000          0.995850E-03
      0.160000          0.927862E-03
      0.165000          0.868379E-03
      0.170000          0.817016E-03
      0.175000          0.772909E-03
      0.180000          0.734748E-03
      0.185000          0.700955E-03
      0.190000          0.669950E-03
      0.195000          0.640388E-03
      0.200000          0.611318E-03
      0.205000          0.582221E-03
      0.210000          0.552974E-03
      0.215000          0.523745E-03
      0.220000          0.494886E-03
      0.225000          0.466810E-03
      0.230000          0.439895E-03
      0.235000          0.414394E-03
      0.240000          0.390388E-03
      0.245000          0.367786E-03
      0.250000          0.346382E-03
      0.255000          0.325951E-03
      0.260000          0.306343E-03
      0.265000          0.287560E-03
      0.270000          0.269755E-03
      0.275000          0.253175E-03
      0.280000          0.238066E-03
      0.285000          0.224571E-03
      0.290000          0.212671E-03
      0.295000          0.202190E-03
      0.300000          0.192844E-03
      0.305000          0.184326E-03
      0.310000          0.176383E-03
      0.315000          0.168852E-03
      0.320000          0.161656E-03
      0.325000          0.154776E-03
      0.330000          0.148211E-03
      0.335000          0.141950E-03
      0.340000          0.135977E-03
      0.345000          0.130286E-03
      0.350000          0.124900E-03
      0.355000          0.119874E-03
      0.360000          0.115283E-03
      0.365000          0.111191E-03
      0.370000          0.107630E-03
      0.375000          0.104579E-03
      0.380000          0.101973E-03
      0.385000          0.997174E-04
      0.390000          0.977107E-04
      0.395000          0.958620E-04
      0.400000          0.940992E-04
      0.405000          0.923723E-04
      0.410000          0.906523E-04
      0.415000          0.889298E-04
      0.420000          0.872109E-04
      0.425000          0.855093E-04
      0.430000          0.838362E-04
      0.435000          0.821917E-04
      0.440000          0.805630E-04
      0.445000          0.789333E-04
      0.450000          0.772974E-04
      0.455000          0.756758E-04
      0.460000          0.741175E-04
      0.465000          0.726881E-04
      0.470000          0.714452E-04
      0.475000          0.704132E-04
      0.480000          0.695685E-04
      0.485000          0.688432E-04
      0.490000          0.681466E-04
      0.495000          0.673939E-04
      0.500000          0.665327E-04
