 I_abs(s)[cm^-1]/c[mg/ml]
       0.00000          0.119829E-01
      0.500000E-02      0.117222E-01
      0.100000E-01      0.109869E-01
      0.150000E-01      0.990514E-02
      0.200000E-01      0.865325E-02
      0.250000E-01      0.741197E-02
      0.300000E-01      0.632550E-02
      0.350000E-01      0.547453E-02
      0.400000E-01      0.486968E-02
      0.450000E-01      0.446482E-02
      0.500000E-01      0.418336E-02
      0.550000E-01      0.394771E-02
      0.600000E-01      0.370229E-02
      0.650000E-01      0.342435E-02
      0.700000E-01      0.312144E-02
      0.750000E-01      0.281949E-02
      0.800000E-01      0.254742E-02
      0.850000E-01      0.232457E-02
      0.900000E-01      0.215472E-02
      0.950000E-01      0.202725E-02
      0.100000          0.192364E-02
      0.105000          0.182535E-02
      0.110000          0.172008E-02
      0.115000          0.160437E-02
      0.120000          0.148234E-02
      0.125000          0.136217E-02
      0.130000          0.125206E-02
      0.135000          0.115728E-02
      0.140000          0.107913E-02
      0.145000          0.101550E-02
      0.150000          0.962462E-03
      0.155000          0.915763E-03
      0.160000          0.871974E-03
      0.165000          0.828913E-03
      0.170000          0.785623E-03
      0.175000          0.742141E-03
      0.180000          0.699239E-03
      0.185000          0.658159E-03
      0.190000          0.620296E-03
      0.195000          0.586788E-03
      0.200000          0.558092E-03
      0.205000          0.533713E-03
      0.210000          0.512241E-03
      0.215000          0.491755E-03
      0.220000          0.470471E-03
      0.225000          0.447381E-03
      0.230000          0.422615E-03
      0.235000          0.397368E-03
      0.240000          0.373408E-03
      0.245000          0.352375E-03
      0.250000          0.335167E-03
      0.255000          0.321647E-03
      0.260000          0.310767E-03
      0.265000          0.301022E-03
      0.270000          0.291035E-03
      0.275000          0.280004E-03
      0.280000          0.267885E-03
      0.285000          0.255250E-03
      0.290000          0.242936E-03
      0.295000          0.231650E-03
      0.300000          0.221688E-03
      0.305000          0.212865E-03
      0.310000          0.204654E-03
      0.315000          0.196449E-03
      0.320000          0.187834E-03
      0.325000          0.178750E-03
      0.330000          0.169500E-03
      0.335000          0.160603E-03
      0.340000          0.152566E-03
      0.345000          0.145664E-03
      0.350000          0.139836E-03
      0.355000          0.134711E-03
      0.360000          0.129775E-03
      0.365000          0.124592E-03
      0.370000          0.118976E-03
      0.375000          0.113053E-03
      0.380000          0.107182E-03
      0.385000          0.101779E-03
      0.390000          0.971215E-04
      0.395000          0.932402E-04
      0.400000          0.899245E-04
      0.405000          0.868437E-04
      0.410000          0.837146E-04
      0.415000          0.804348E-04
      0.420000          0.771233E-04
      0.425000          0.740572E-04
      0.430000          0.715410E-04
      0.435000          0.697697E-04
      0.440000          0.687438E-04
      0.445000          0.682655E-04
      0.450000          0.680108E-04
      0.455000          0.676447E-04
      0.460000          0.669344E-04
      0.465000          0.658212E-04
      0.470000          0.644251E-04
      0.475000          0.629833E-04
      0.480000          0.617448E-04
      0.485000          0.608627E-04
      0.490000          0.603289E-04
      0.495000          0.599813E-04
      0.500000          0.595826E-04
