 I_abs(s)[cm^-1]/c[mg/ml]
       0.00000          0.123894E-01
      0.500000E-02      0.121808E-01
      0.100000E-01      0.115864E-01
      0.150000E-01      0.106918E-01
      0.200000E-01      0.961747E-02
      0.250000E-01      0.849125E-02
      0.300000E-01      0.742262E-02
      0.350000E-01      0.648477E-02
      0.400000E-01      0.570855E-02
      0.450000E-01      0.508788E-02
      0.500000E-01      0.459316E-02
      0.550000E-01      0.418711E-02
      0.600000E-01      0.383768E-02
      0.650000E-01      0.352500E-02
      0.700000E-01      0.324159E-02
      0.750000E-01      0.298799E-02
      0.800000E-01      0.276666E-02
      0.850000E-01      0.257722E-02
      0.900000E-01      0.241473E-02
      0.950000E-01      0.227077E-02
      0.100000          0.213646E-02
      0.105000          0.200533E-02
      0.110000          0.187493E-02
      0.115000          0.174659E-02
      0.120000          0.162378E-02
      0.125000          0.151010E-02
      0.130000          0.140765E-02
      0.135000          0.131656E-02
      0.140000          0.123541E-02
      0.145000          0.116216E-02
      0.150000          0.109505E-02
      0.155000          0.103296E-02
      0.160000          0.975306E-03
      0.165000          0.921654E-03
      0.170000          0.871347E-03
      0.175000          0.823475E-03
      0.180000          0.777121E-03
      0.185000          0.731741E-03
      0.190000          0.687424E-03
      0.195000          0.644870E-03
      0.200000          0.605076E-03
      0.205000          0.568891E-03
      0.210000          0.536645E-03
      0.215000          0.508026E-03
      0.220000          0.482238E-03
      0.225000          0.458331E-03
      0.230000          0.435540E-03
      0.235000          0.413479E-03
      0.240000          0.392129E-03
      0.245000          0.371667E-03
      0.250000          0.352249E-03
      0.255000          0.333864E-03
      0.260000          0.316316E-03
      0.265000          0.299333E-03
      0.270000          0.282712E-03
      0.275000          0.266427E-03
      0.280000          0.250649E-03
      0.285000          0.235671E-03
      0.290000          0.221774E-03
      0.295000          0.209126E-03
      0.300000          0.197718E-03
      0.305000          0.187388E-03
      0.310000          0.177894E-03
      0.315000          0.168995E-03
      0.320000          0.160518E-03
      0.325000          0.152384E-03
      0.330000          0.144598E-03
      0.335000          0.137218E-03
      0.340000          0.130326E-03
      0.345000          0.124000E-03
      0.350000          0.118308E-03
      0.355000          0.113293E-03
      0.360000          0.108969E-03
      0.365000          0.105318E-03
      0.370000          0.102282E-03
      0.375000          0.997745E-04
      0.380000          0.976909E-04
      0.385000          0.959306E-04
      0.390000          0.944088E-04
      0.395000          0.930596E-04
      0.400000          0.918280E-04
      0.405000          0.906615E-04
      0.410000          0.895090E-04
      0.415000          0.883355E-04
      0.420000          0.871450E-04
      0.425000          0.859987E-04
      0.430000          0.850106E-04
      0.435000          0.843130E-04
      0.440000          0.840020E-04
      0.445000          0.840847E-04
      0.450000          0.844550E-04
      0.455000          0.849147E-04
      0.460000          0.852320E-04
      0.465000          0.852134E-04
      0.470000          0.847576E-04
      0.475000          0.838683E-04
      0.480000          0.826250E-04
      0.485000          0.811327E-04
      0.490000          0.794766E-04
      0.495000          0.777057E-04
      0.500000          0.758462E-04
